# do not edit -- automatically generated Mon Aug 27 17:14:16 2018 from /susfu/kashyap/solar/ISSI/Capella_O7/binned_14t18.pro
# 
# events in wavelength region [14.00,18.00] Ang
# 
# BACKSCAL = 15.6250
#columns are:
#WLOW: wavelength grid bin lower bound [Angstrom]
#WHIGH: wavelength grid bin upper bound [Angstrom]
#SRCCT: counts in bin [ct]
#BKGCT: background counts in bin [ct]
#EA{p|n}_OBSID: effective area for each ObsID [cm^2 ksec]
WLOW	WHIGH	SRCCT	BKGCT	EAn_00055	EAn_01225	EAn_08319	EAn_18358	EAn_18360	EAn_18362
N	N	N	N	N	N	N	N	N	N
14.0000	14.0050	51	8	1125.8643	132.57972	708.79366	62.511671	63.177431	61.914448
14.0050	14.0100	46	5	1126.0330	132.40218	705.54152	62.416337	63.081740	61.819548
14.0100	14.0150	73	5	1125.0433	132.24654	703.71017	62.320496	62.985419	61.724129
14.0150	14.0200	61	6	1124.0540	132.09095	701.87953	62.224691	62.889135	61.628747
14.0200	14.0250	77	5	1124.2384	132.40672	696.19770	62.128955	62.792886	61.533373
14.0250	14.0300	103	8	1124.8638	132.89956	689.06939	62.033251	62.696658	61.438008
14.0300	14.0350	92	9	1125.5508	133.27426	682.63905	61.937544	62.600471	61.342725
14.0350	14.0400	76	6	1126.4487	133.24649	678.58223	61.841727	62.504325	61.247616
14.0400	14.0450	98	7	1127.3463	133.21873	674.52695	61.745946	62.408215	61.152543
14.0450	14.0500	90	8	1126.5657	133.17033	667.30417	61.650431	62.312223	61.057501
14.0500	14.0550	95	8	1125.1550	133.11421	658.89498	61.555065	62.216326	60.962519
14.0550	14.0600	83	7	1124.2351	133.12220	649.81560	61.457868	62.118664	60.865783
14.0600	14.0650	72	5	1124.9875	133.34845	638.47003	61.354602	62.015158	60.763234
14.0650	14.0700	76	8	1125.7399	133.57470	627.12446	61.251335	61.911653	60.660684
14.0700	14.0750	68	8	1124.9976	133.41493	620.54775	61.148522	61.808485	60.558461
14.0750	14.0800	70	10	1123.6937	133.11013	615.76725	61.045934	61.705498	60.456414
14.0800	14.0850	76	7	1122.4537	132.87338	611.98014	60.943575	61.602745	60.354620
14.0850	14.0900	66	3	1121.4331	132.86886	611.58379	60.842170	61.500965	60.253861
14.0900	14.0950	57	5	1120.4121	132.86435	611.18729	60.740727	61.399146	60.153064
14.0950	14.1000	49	9	1120.9906	132.56670	613.71375	60.640920	61.299002	60.053820
14.1000	14.1050	45	8	1122.1702	132.15885	617.33907	60.541696	61.199454	59.955126
14.1050	14.1100	49	11	1122.7162	131.88041	620.85585	60.442703	61.100125	59.856661
14.1100	14.1150	62	10	1121.1013	132.04343	624.00180	60.344524	61.001561	59.758995
14.1150	14.1200	54	2	1119.4858	132.20651	627.14895	60.246307	60.902959	59.661291
14.1200	14.1250	57	6	1118.7330	132.25264	631.01778	60.148500	60.805022	59.563974
14.1250	14.1300	76	5	1118.3040	132.25482	635.15999	60.050796	60.707284	59.466752
14.1300	14.1350	51	7	1118.0541	132.20789	639.36981	59.953284	60.609623	59.369702
14.1350	14.1400	61	9	1118.4143	131.99338	643.81734	59.856265	60.512063	59.273080
14.1400	14.1450	47	1	1118.7745	131.77895	648.26316	59.759283	60.414541	59.176495
14.1450	14.1500	84	10	1117.9363	131.79830	653.00748	59.662466	60.317153	59.079995
14.1500	14.1550	67	7	1116.6474	131.90560	657.86374	59.565719	60.219824	58.983535
14.1550	14.1600	81	8	1115.7203	131.96082	663.31458	59.468074	60.121608	58.886204
14.1600	14.1650	97	7	1116.0282	131.83824	670.80167	59.367262	60.020262	58.785798
14.1650	14.1700	116	12	1116.3359	131.71571	678.28591	59.266488	59.918955	58.685430
14.1700	14.1750	134	8	1115.9423	131.55036	683.61691	59.166121	59.817959	58.585375
14.1750	14.1800	133	14	1115.2850	131.36900	688.13503	59.065959	59.717133	58.485491
14.1800	14.1850	221	21	1114.5634	131.23163	693.65643	58.965878	59.616406	58.385696
14.1850	14.1900	221	25	1113.6241	131.24440	702.58786	58.866239	59.516189	58.286375
14.1900	14.1950	281	24	1112.6848	131.25717	711.51928	58.766601	59.415972	58.187054
14.1950	14.2000	291	26	1112.5172	131.14679	722.49799	58.667850	59.316520	58.088543
14.2000	14.2050	318	16	1112.6401	130.99012	734.24149	58.569485	59.217408	57.990389
14.2050	14.2100	323	24	1112.4236	130.89584	744.75531	58.471365	59.118575	57.892488
14.2100	14.2150	327	24	1111.0493	131.01461	751.05609	58.374245	59.020861	57.795611
14.2150	14.2200	287	27	1109.6745	131.13342	757.35927	58.277089	58.923110	57.698697
14.2200	14.2250	233	19	1109.2666	131.09661	758.53317	58.182285	58.827620	57.604071
14.2250	14.2300	200	11	1109.2219	131.00129	757.77929	58.088334	58.732948	57.510272
14.2300	14.2350	187	19	1109.0202	130.95409	755.57633	57.994472	58.638385	57.416578
14.2350	14.2400	188	18	1108.2825	131.07110	748.42846	57.900934	58.544211	57.323256
14.2400	14.2450	145	15	1107.5446	131.18815	741.27787	57.807360	58.450001	57.229899
14.2450	14.2500	165	10	1106.6611	131.02819	734.03437	57.714168	58.356104	57.136906
14.2500	14.2550	141	13	1105.7224	130.76386	726.75209	57.621071	58.262275	57.044001
14.2550	14.2600	140	8	1105.1344	130.57164	719.34974	57.528121	58.168551	56.951270
14.2600	14.2650	126	12	1105.7433	130.62545	711.52480	57.435519	58.075025	56.858972
14.2650	14.2700	122	7	1106.3521	130.67924	703.70284	57.342952	57.981535	56.766710
14.2700	14.2750	115	7	1105.6556	130.60890	701.95286	57.250722	57.888482	56.674688
14.2750	14.2800	94	9	1104.4678	130.49184	702.48942	57.158625	57.795601	56.582763
14.2800	14.2850	70	9	1103.4618	130.41004	703.76621	57.066172	57.702351	56.490491
14.2850	14.2900	63	5	1103.0762	130.44875	707.57494	56.972406	57.607747	56.396940
14.2900	14.2950	59	1	1102.6908	130.48744	711.38223	56.878675	57.513179	56.303425
14.2950	14.3000	53	8	1102.3132	130.41564	717.71510	56.784312	57.418077	56.209197
14.3000	14.3050	55	6	1101.9386	130.30228	724.99598	56.689762	57.322825	56.114750
14.3050	14.3100	72	3	1101.3067	130.21568	732.44733	56.595090	57.227479	56.020192
14.3100	14.3150	50	2	1099.7970	130.22063	740.46807	56.500158	57.131979	55.925419
14.3150	14.3200	46	5	1098.2873	130.22557	748.48881	56.405227	57.036478	55.830647
14.3200	14.3250	55	9	1097.4838	130.02543	757.47043	56.310700	56.941372	55.736043
14.3250	14.3300	56	6	1096.9466	129.74813	766.80937	56.216375	56.846465	55.641553
14.3300	14.3350	79	9	1096.6764	129.51230	777.10194	56.121506	56.751066	55.546621
14.3350	14.3400	101	13	1097.3183	129.41856	790.63497	56.024936	56.654142	55.450339
14.3400	14.3450	102	10	1097.9605	129.32479	804.17317	55.928330	56.557182	55.354020
14.3450	14.3500	110	13	1097.0243	129.35240	813.16268	55.829657	56.458027	55.255433
14.3500	14.3550	143	7	1095.4936	129.42572	820.44245	55.730172	56.358013	55.155959
14.3550	14.3600	132	13	1094.1399	129.44744	826.78127	55.630759	56.258077	55.056622
14.3600	14.3650	165	17	1093.3914	129.29286	829.90393	55.531606	56.158426	54.957774
14.3650	14.3700	164	15	1092.6427	129.13822	833.02778	55.432415	56.058738	54.858888
14.3700	14.3750	146	19	1091.7865	128.97533	833.49601	55.333657	55.959447	54.760469
14.3750	14.3800	158	13	1090.8894	128.80925	832.96438	55.235011	55.860254	54.662174
14.3800	14.3850	139	12	1089.9872	128.64270	832.38200	55.136526	55.761228	54.564053
14.3850	14.3900	131	6	1089.0662	128.47425	831.62520	55.038428	55.662605	54.466361
14.3900	14.3950	124	12	1088.1455	128.30587	830.86869	54.940367	55.564020	54.368706
14.3950	14.4000	109	7	1087.2632	128.32923	830.10257	54.842235	55.465286	54.270944
14.4000	14.4050	111	8	1086.3956	128.42484	829.33289	54.744083	55.366504	54.173149
14.4050	14.4100	121	7	1085.4619	128.44319	828.55444	54.645619	55.267418	54.075055
14.4100	14.4150	95	6	1084.3012	128.19719	827.74518	54.545986	55.167192	53.975837
14.4150	14.4200	101	8	1083.1411	127.95128	826.93622	54.446392	55.067005	53.876658
14.4200	14.4250	100	8	1082.4563	127.80456	826.17826	54.348288	54.968303	53.778933
14.4250	14.4300	85	8	1081.9511	127.69531	825.43991	54.250796	54.870211	53.681807
14.4300	14.4350	84	2	1081.4396	127.58120	824.68788	54.153376	54.772208	53.584803
14.4350	14.4400	75	8	1080.9073	127.45067	823.89036	54.056366	54.674671	53.488374
14.4400	14.4450	63	3	1080.3751	127.32013	823.09284	53.959355	54.577134	53.391946
14.4450	14.4500	75	11	1079.2627	127.07059	822.33385	53.859245	54.480070	53.295821
14.4500	14.4550	61	4	1077.9322	126.77628	821.58979	53.758017	54.383234	53.199862
14.4550	14.4600	72	7	1076.8045	126.56391	820.83781	53.635103	54.285959	53.103491
14.4600	14.4650	61	11	1076.3729	126.63223	820.05995	53.438200	54.187345	53.005873
14.4650	14.4700	72	8	1075.9412	126.70058	819.28180	53.241221	54.088693	52.908219
14.4700	14.4750	65	9	1074.2552	126.75734	818.49787	53.053074	53.990424	52.810828
14.4750	14.4800	69	9	1072.0960	126.80976	817.71149	52.868194	53.892267	52.713504
14.4800	14.4850	60	11	1070.3110	126.76785	816.93631	52.579952	53.794277	52.616384
14.4850	14.4900	68	6	1069.8066	126.40325	816.19960	51.938162	53.696880	52.519980
14.4900	14.4950	59	7	1069.3020	126.03851	815.46260	51.296126	53.599445	52.423539
14.4950	14.5000	63	5	1068.2368	125.97469	814.71296	50.786350	53.503414	52.328501
14.5000	14.5050	82	8	1066.9597	126.02430	813.95815	50.326176	53.407862	52.233943
14.5050	14.5100	76	5	1065.7577	126.10416	813.20981	49.887221	53.312734	52.139803
14.5100	14.5150	91	5	1064.8105	126.28769	812.48233	49.520151	53.218896	52.046937
14.5150	14.5200	103	10	1063.8636	126.47116	811.75513	49.153221	53.125095	51.954106
14.5200	14.5250	109	16	1062.9093	126.14784	811.03644	48.564629	53.031661	51.861617
14.5250	14.5300	123	10	1061.9523	125.63326	810.32101	47.892414	52.938373	51.769264
14.5300	14.5350	155	11	1060.6923	125.16761	809.60237	47.330124	52.845221	51.677053
14.5350	14.5400	130	6	1058.3927	124.86906	808.87194	47.143831	52.752437	51.585236
14.5400	14.5450	142	6	1056.0940	124.57062	808.14179	46.957609	52.659689	51.493453
14.5450	14.5500	128	10	1054.4822	124.48484	807.40977	46.603156	52.567054	51.401779
14.5500	14.5550	130	8	1053.1305	124.47933	806.67743	46.185417	52.474510	51.310193
14.5550	14.5600	122	11	1051.9692	124.44432	805.94330	45.938931	52.381980	51.218562
14.5600	14.5650	84	9	1051.4616	124.30841	805.20428	46.279029	52.289654	51.126930
14.5650	14.5700	84	8	1050.9541	124.17250	804.46525	46.619126	52.197328	51.035298
14.5700	14.5750	85	9	1048.7534	123.96710	803.72747	46.721763	52.105137	50.944020
14.5750	14.5800	77	13	1045.9145	123.73557	802.99054	46.734655	52.013046	50.852923
14.5800	14.5850	76	10	1043.3636	123.54198	802.25389	46.775099	51.921071	50.761917
14.5850	14.5900	73	5	1041.8032	123.47862	801.51947	46.909795	51.829646	50.671372
14.5900	14.5950	63	4	1040.2422	123.41524	800.78477	47.044543	51.738187	50.580792
14.5950	14.6000	53	8	1038.6338	123.45484	800.03949	47.084297	51.646246	50.489805
14.6000	14.6050	53	4	1037.0068	123.53329	799.28998	47.088235	51.554092	50.398633
14.6050	14.6100	54	7	1034.7952	123.54100	798.53715	47.051990	51.461810	50.307342
14.6100	14.6150	54	3	1030.5807	123.30635	797.77314	46.878080	51.369107	50.215659
14.6150	14.6200	46	7	1026.3646	123.07160	797.00884	46.704103	51.276368	50.123942
14.6200	14.6250	41	2	1023.3881	122.82312	796.25750	46.763728	51.184752	50.033327
14.6250	14.6300	43	6	1020.8780	122.56932	795.51065	46.911583	51.093512	49.943081
14.6300	14.6350	48	3	1017.2842	122.32809	794.76526	47.015743	50.984052	49.853022
14.6350	14.6400	66	8	1009.9711	122.12948	794.02358	46.970387	50.811986	49.763455
14.6400	14.6450	52	5	1002.6608	121.93096	793.28219	46.925049	50.639986	49.673922
14.6450	14.6500	65	7	993.95703	121.32362	792.54223	46.959991	50.291914	49.584828
14.6500	14.6550	66	5	984.72759	120.56191	791.80286	47.025256	49.877357	49.495907
14.6550	14.6600	62	7	976.62123	119.90833	791.06409	47.073640	49.397947	49.407088
14.6600	14.6650	74	6	972.35919	119.62505	790.32657	47.064159	48.695566	49.318528
14.6650	14.6700	85	10	968.09878	119.34189	789.58933	47.054681	47.993452	49.230002
14.6700	14.6750	63	3	966.04069	118.46850	788.85285	46.992612	47.426236	49.141803
14.6750	14.6800	58	9	964.81550	117.37264	788.11705	46.910711	46.910269	49.053773
14.6800	14.6850	50	7	965.17614	116.26750	787.37677	46.848035	46.362716	48.965155
14.6850	14.6900	42	8	970.96990	115.13241	786.62240	46.851337	45.707861	48.874670
14.6900	14.6950	42	5	976.76365	113.99731	785.86802	46.854639	45.053007	48.784184
14.6950	14.7000	52	4	986.85152	113.03699	785.10461	46.705862	44.474572	48.693053
14.7000	14.7050	45	4	998.55717	112.14325	784.33819	46.499682	43.925326	48.601725
14.7050	14.7100	34	7	1011.1161	111.56743	783.57171	46.353968	43.498365	48.510383
14.7100	14.7150	57	10	1026.5782	112.08226	782.80634	46.415744	43.491245	48.419148
14.7150	14.7200	39	7	1042.0463	112.59728	782.04067	46.477543	43.484122	48.327879
14.7200	14.7250	49	4	1052.8773	113.58602	781.27636	46.391617	43.569062	48.014942
14.7250	14.7300	67	7	1061.9607	114.75399	780.51232	46.249873	43.688797	47.618188
14.7300	14.7350	61	8	1070.0882	116.19437	779.74891	46.140431	43.832110	47.115515
14.7350	14.7400	67	7	1074.9355	118.56884	778.98780	46.141804	44.056267	46.249637
14.7400	14.7450	61	11	1079.7847	120.94421	778.22640	46.143177	44.280509	45.383428
14.7450	14.7500	44	3	1083.0939	122.67574	777.26737	46.077091	44.452130	44.558953
14.7500	14.7550	44	8	1085.8227	124.16480	776.23313	45.985472	44.603950	43.749820
14.7550	14.7600	53	4	1087.8299	125.55788	775.22455	45.869159	44.719631	42.971311
14.7600	14.7650	55	3	1087.3647	126.62400	774.30226	45.667924	44.711509	42.296558
14.7650	14.7700	43	9	1086.8997	127.68972	773.38033	45.466765	44.703390	41.622062
14.7700	14.7750	38	4	1086.3482	128.05775	772.58462	45.430721	44.627723	41.088231
14.7750	14.7800	40	2	1085.7642	128.16196	771.83669	45.457111	44.526522	40.607625
14.7800	14.7850	32	5	1085.1726	128.22623	771.08894	45.476016	44.463018	40.286294
14.7850	14.7900	40	4	1084.5545	128.15339	770.34105	45.469232	44.528935	40.511722
14.7900	14.7950	38	6	1083.9366	128.08058	769.59344	45.462451	44.594827	40.737063
14.7950	14.8000	37	3	1083.3191	128.00781	768.84247	45.366714	44.732139	41.082151
14.8000	14.8050	34	7	1082.7019	127.93510	768.09062	45.237387	44.896388	41.472339
14.8050	14.8100	31	5	1082.0847	127.86237	767.33799	45.112137	44.981226	41.841166
14.8100	14.8150	52	6	1081.4682	127.78974	766.58391	45.001081	44.793583	42.136108
14.8150	14.8200	33	4	1080.8516	127.71710	765.82984	44.890026	44.605939	42.431049
14.8200	14.8250	37	6	1080.2346	127.64441	765.07784	44.740581	44.534848	42.664454
14.8250	14.8300	49	5	1079.6178	127.57175	764.32704	44.576692	44.507886	42.874456
14.8300	14.8350	31	6	1078.9959	127.49849	763.57352	44.461737	44.491286	43.033015
14.8350	14.8400	36	2	1078.3579	127.42331	762.81195	44.514869	44.510271	43.014805
14.8400	14.8450	43	1	1077.7196	127.34811	762.05010	44.568021	44.529262	42.996587
14.8450	14.8500	32	7	1077.0822	127.27301	761.29053	44.538997	44.492329	43.051618
14.8500	14.8550	28	3	1076.4448	127.19791	760.53156	44.478900	44.434244	43.134355
14.8550	14.8600	37	2	1075.8077	127.12285	759.77322	44.411706	44.393561	43.179019
14.8600	14.8650	41	9	1075.1715	127.04790	759.01714	44.320156	44.412645	43.092937
14.8650	14.8700	41	4	1074.5350	126.97292	758.26077	44.228570	44.431736	43.006822
14.8700	14.8750	50	6	1073.8993	126.89802	757.50635	44.155748	44.358025	42.958210
14.8750	14.8800	36	4	1073.2636	126.82312	756.75228	44.089987	44.249160	42.923764
14.8800	14.8850	33	3	1072.6248	126.74785	755.99648	44.017172	44.185297	42.889693
14.8850	14.8900	36	9	1071.9744	126.67119	755.23350	43.920002	44.275917	42.856858
14.8900	14.8950	58	7	1071.3241	126.59457	754.47081	43.822869	44.366503	42.824035
14.8950	14.9000	44	8	1070.6617	126.51650	753.70110	43.774512	44.303818	42.757718
14.9000	14.9050	61	4	1069.9948	126.43790	752.92878	43.744620	44.183124	42.678728
14.9050	14.9100	66	8	1069.3293	126.35946	752.15609	43.681834	44.066220	42.601391
14.9100	14.9150	53	3	1068.6677	126.28151	751.38134	43.505853	43.962228	42.529660
14.9150	14.9200	46	2	1068.0065	126.20359	750.60689	43.329940	43.858276	42.457957
14.9200	14.9250	60	13	1067.3454	126.12569	749.83130	43.319111	43.773454	42.375408
14.9250	14.9300	56	6	1066.6847	126.04784	749.05571	43.370783	43.695917	42.288797
14.9300	14.9350	55	9	1066.0240	125.96998	748.28036	43.388712	43.624979	42.199178
14.9350	14.9400	66	4	1065.3645	125.89224	747.50720	43.290748	43.576819	42.099385
14.9400	14.9450	72	10	1064.7050	125.81450	746.73404	43.192784	43.528659	41.999592
14.9450	14.9500	83	9	1064.0454	125.73677	745.96068	43.075450	43.494340	41.938801
14.9500	14.9550	82	7	1063.3861	125.65909	745.18765	42.950842	43.465282	41.892812
14.9550	14.9600	116	9	1062.7260	125.58130	744.41022	42.855871	43.410162	41.840182
14.9600	14.9650	140	12	1062.0642	125.50333	743.61894	42.862873	43.265608	41.764827
14.9650	14.9700	178	17	1061.4021	125.42533	742.82737	42.869877	43.120998	41.689444
14.9700	14.9750	204	21	1060.7366	125.34691	742.03286	42.701373	43.048670	41.651761
14.9750	14.9800	236	10	1060.0695	125.26831	741.23696	42.466395	43.003671	41.628333
14.9800	14.9850	314	26	1059.4018	125.18963	740.44099	42.287387	42.938432	41.584642
14.9850	14.9900	417	21	1058.7320	125.11070	739.64494	42.300857	42.803614	41.471290
14.9900	14.9950	426	32	1058.0619	125.03173	738.84859	42.314333	42.668744	41.357896
14.9950	15.0000	527	29	1057.3927	124.95289	738.06751	42.239219	42.531142	41.275699
15.0000	15.0050	624	32	1056.7235	124.87406	737.29182	42.130505	42.392433	41.205277
15.0050	15.0100	661	35	1056.0548	124.79528	736.52102	42.026841	42.294056	41.144602
15.0100	15.0150	683	31	1055.3865	124.71654	735.76575	41.940374	42.334252	41.117355
15.0150	15.0200	665	42	1054.7186	124.63783	735.01077	41.853940	42.374433	41.090119
15.0200	15.0250	626	34	1054.0512	124.55919	734.25728	41.799895	42.262357	41.020821
15.0250	15.0300	538	31	1053.3841	124.48058	733.50442	41.758123	42.092619	40.935596
15.0300	15.0350	414	22	1052.7173	124.40202	732.75223	41.670827	41.943407	40.868282
15.0350	15.0400	333	23	1052.0511	124.32352	732.00159	41.426740	41.864696	40.862552
15.0400	15.0450	276	20	1051.3852	124.24505	731.25125	41.182747	41.786015	40.856825
15.0450	15.0500	230	11	1050.7192	124.16660	730.50192	41.157330	41.714100	40.772266
15.0500	15.0550	198	14	1050.0536	124.08819	729.75338	41.214787	41.644787	40.657866
15.0550	15.0600	182	13	1049.3881	124.00979	729.00522	41.225929	41.582231	40.557861
15.0600	15.0650	140	10	1048.7233	123.93145	728.25888	41.077592	41.542981	40.507481
15.0650	15.0700	136	10	1048.0586	123.85314	727.51268	40.929283	41.503738	40.457110
15.0700	15.0750	144	11	1047.3944	123.77486	726.76787	40.780539	41.425821	40.387154
15.0750	15.0800	147	16	1046.7307	123.69663	726.02398	40.631708	41.333276	40.309806
15.0800	15.0850	122	10	1046.0671	123.61840	725.28032	40.523896	41.239858	40.223577
15.0850	15.0900	130	9	1045.4044	123.54031	724.53877	40.557461	41.143594	40.106928
15.0900	15.0950	105	7	1044.7415	123.46219	723.79694	40.591039	41.047293	39.990235
15.0950	15.1000	82	3	1044.0794	123.38416	723.04453	40.448570	41.019273	39.941015
15.1000	15.1050	88	11	1043.4174	123.30615	722.28788	40.239340	41.017119	39.917349
15.1050	15.1100	60	3	1042.7557	123.22817	721.52790	40.072050	40.979640	39.878762
15.1100	15.1150	51	9	1042.0948	123.15030	720.75664	40.049167	40.820566	39.788820
15.1150	15.1200	54	8	1041.4337	123.07241	719.98509	40.026275	40.661431	39.698844
15.1200	15.1250	44	7	1040.7734	122.99460	719.21581	39.918387	40.596337	39.611465
15.1250	15.1300	48	5	1040.1130	122.91679	718.44699	39.778219	40.566860	39.525025
15.1300	15.1350	60	2	1039.4529	122.83901	717.67676	39.666398	40.527660	39.437985
15.1350	15.1400	48	7	1038.7925	122.76119	716.90035	39.652000	40.454908	39.348732
15.1400	15.1450	40	8	1038.1324	122.68341	716.12424	39.637606	40.382185	39.259514
15.1450	15.1500	65	5	1037.4727	122.60567	715.34814	39.544568	40.269947	39.165686
15.1500	15.1550	69	9	1036.8132	122.52795	714.57211	39.421694	40.142724	39.070115
15.1550	15.1600	50	14	1036.1539	122.45027	713.79671	39.316292	40.027787	38.986268
15.1600	15.1650	67	14	1035.4952	122.37265	713.02267	39.271022	39.955093	38.942753
15.1650	15.1700	92	12	1034.8366	122.29505	712.24893	39.225769	39.882426	38.899255
15.1700	15.1750	70	10	1034.1785	122.21751	711.47304	39.123543	39.811911	38.793013
15.1750	15.1800	95	7	1033.5210	122.14003	710.69674	38.999757	39.742249	38.663023
15.1800	15.1850	88	8	1032.8635	122.06255	709.67295	38.874184	39.679189	38.559082
15.1850	15.1900	107	6	1032.2065	121.98513	707.79715	38.742540	39.638922	38.544963
15.1900	15.1950	102	3	1031.5496	121.90772	705.92172	38.610921	39.598662	38.530847
15.1950	15.2000	109	5	1030.8805	121.82887	702.38366	38.558303	39.482702	38.431276
15.2000	15.2050	109	12	1030.2071	121.74951	698.21652	38.535693	39.338077	38.299328
15.2050	15.2100	120	5	1029.5335	121.67014	692.66949	38.501442	39.210276	38.187092
15.2100	15.2150	124	8	1028.8607	121.59086	682.38024	38.427164	39.140627	38.142924
15.2150	15.2200	143	7	1028.1875	121.51155	672.08706	38.352858	39.070951	38.098738
15.2200	15.2250	114	16	1027.5155	121.43234	661.89489	38.267582	39.024241	38.021917
15.2250	15.2300	139	11	1026.8436	121.35314	651.73758	38.178118	38.986221	37.932699
15.2300	15.2350	143	11	1026.1721	121.27397	641.50097	38.094496	38.917239	37.827863
15.2350	15.2400	148	11	1025.5015	121.19491	630.99321	38.031001	38.741660	37.669267
15.2400	15.2450	184	9	1024.8306	121.11582	620.48145	37.967482	38.566013	37.510610
15.2450	15.2500	220	13	1024.1606	121.03685	614.75710	37.772344	38.518077	37.439995
15.2500	15.2550	241	12	1023.4905	120.95788	610.84612	37.527167	38.518569	37.402746
15.2550	15.2600	266	10	1022.8210	120.87897	607.89225	37.330840	38.477700	37.350750
15.2600	15.2650	273	18	1022.1519	120.80013	608.23261	37.302580	38.294181	37.247825
15.2650	15.2700	251	17	1021.4831	120.72132	608.57284	37.274329	38.110732	37.144940
15.2700	15.2750	250	12	1020.8274	120.64405	611.72728	37.185785	38.012717	37.095965
15.2750	15.2800	206	12	1020.1766	120.56738	615.94982	37.074358	37.947142	37.067459
15.2800	15.2850	138	16	1019.5263	120.49076	620.48981	36.963764	37.888633	37.026821
15.2850	15.2900	143	11	1018.8768	120.41422	626.12992	36.855927	37.854448	36.944279
15.2900	15.2950	94	3	1018.2275	120.33771	631.76788	36.748131	37.820275	36.861769
15.2950	15.3000	76	3	1017.5787	120.26126	633.97722	36.620776	37.694650	36.775760
15.3000	15.3050	78	5	1016.9303	120.18488	634.88353	36.486062	37.534366	36.688468
15.3050	15.3100	59	7	1016.2821	120.10850	636.21877	36.341466	37.399504	36.608541
15.3100	15.3150	59	5	1015.6345	120.03219	639.03285	36.162871	37.352430	36.554073
15.3150	15.3200	55	6	1014.9871	119.95589	641.84640	35.984311	37.305365	36.499615
15.3200	15.3250	46	6	1014.3401	119.87964	642.87628	35.931593	37.211433	36.414330
15.3250	15.3300	61	6	1013.6935	119.80345	643.22775	35.926729	37.099739	36.317376
15.3300	15.3350	53	4	1013.0470	119.72726	643.60945	35.860406	37.000814	36.230501
15.3350	15.3400	43	7	1012.4014	119.65120	644.09474	35.582260	36.946094	36.178537
15.3400	15.3450	44	2	1011.7557	119.57511	644.58022	35.304008	36.891352	36.126553
15.3450	15.3500	40	5	1011.1096	119.49896	644.55452	35.215260	36.824766	36.056604
15.3500	15.3550	46	4	1010.4631	119.42278	644.33482	35.198399	36.753663	35.979813
15.3550	15.3600	36	3	1009.8166	119.34658	644.02744	35.138384	36.676500	35.899806
15.3600	15.3650	57	5	1009.1699	119.27038	643.41785	34.929606	36.578457	35.808724
15.3650	15.3700	46	6	1008.5230	119.19414	642.80803	34.720748	36.480378	35.717609
15.3700	15.3750	54	7	1007.8769	119.11797	643.29961	34.401946	36.406181	35.655297
15.3750	15.3800	52	6	1007.2308	119.04178	644.20978	34.041216	36.341016	35.603892
15.3800	15.3850	53	4	1006.5850	118.96565	644.72967	33.739273	36.255748	35.539808
15.3850	15.3900	32	5	1005.9394	118.88957	643.90332	33.639729	36.100947	35.431849
15.3900	15.3950	52	3	1005.2941	118.81352	643.07729	33.540224	35.946204	35.323932
15.3950	15.4000	37	7	1004.6493	118.73754	642.89700	33.231400	35.890951	35.251865
15.4000	15.4050	28	3	1004.0048	118.66159	642.96216	32.843035	35.873518	35.193430
15.4050	15.4100	37	3	1003.3606	118.58568	642.85395	32.592422	35.834150	35.123885
15.4100	15.4150	31	6	1002.7169	118.50981	642.14678	32.817364	35.718973	35.015892
15.4150	15.4200	30	5	1002.0735	118.43398	641.43988	33.042219	35.603840	34.907940
15.4200	15.4250	45	2	1001.4192	118.35687	640.66124	33.150997	35.492789	34.836767
15.4250	15.4300	36	5	1000.7610	118.27931	639.85576	33.215616	35.383348	34.779607
15.4300	15.4350	50	5	1000.1022	118.20168	639.26794	33.339154	35.289443	34.712077
15.4350	15.4400	58	9	999.44168	118.12383	639.43220	33.666093	35.249258	34.608783
15.4400	15.4450	64	7	998.78125	118.04600	639.59643	33.992969	35.209080	34.505509
15.4450	15.4500	80	7	998.12143	117.96823	639.15412	34.142461	35.075740	34.388391
15.4500	15.4550	70	4	997.46219	117.89053	638.48135	34.224408	34.907037	34.266068
15.4550	15.4600	64	5	996.80290	117.81283	637.97434	34.324494	34.773697	34.152793
15.4600	15.4650	63	4	996.14452	117.73524	638.04024	34.487006	34.762629	34.070941
15.4650	15.4700	58	8	995.48588	117.65763	638.10615	34.649581	34.751557	33.989057
15.4700	15.4750	54	5	994.82827	117.58013	637.19640	34.851619	34.655311	33.883004
15.4750	15.4800	47	9	994.17083	117.50264	635.91563	35.068719	34.526671	33.767731
15.4800	15.4850	37	5	993.51364	117.42519	634.83944	35.243699	34.409287	33.668753
15.4850	15.4900	43	7	992.85743	117.34786	634.47026	35.273123	34.330814	33.626088
15.4900	15.4950	41	6	992.20098	117.27049	634.10094	35.302559	34.252312	33.583408
15.4950	15.5000	59	2	991.54069	117.19267	633.82923	35.352066	34.163516	33.499430
15.5000	15.5050	45	6	990.87861	117.11464	633.59451	35.409234	34.070759	33.399700
15.5050	15.5100	32	5	990.21627	117.03657	633.15714	35.441843	33.956048	33.279935
15.5100	15.5150	33	5	989.55193	116.95826	632.01871	35.389628	33.765268	33.090727
15.5150	15.5200	23	5	988.88785	116.87997	630.88071	35.337434	33.574560	32.901591
15.5200	15.5250	31	5	988.22446	116.80176	630.64417	35.268813	33.368608	32.826025
15.5250	15.5300	25	4	987.56138	116.72358	630.75058	35.193948	33.156871	32.793669
15.5300	15.5350	19	3	986.89844	116.64542	630.63473	35.119005	32.945083	32.732774
15.5350	15.5400	23	3	986.23526	116.56724	629.75048	35.043713	32.732894	32.573169
15.5400	15.5450	17	5	985.57234	116.48909	628.86656	34.968451	32.520786	32.413624
15.5450	15.5500	21	1	984.90973	116.41100	628.23398	34.893468	32.250321	32.333862
15.5500	15.5550	21	1	984.24760	116.33297	627.69733	34.818630	31.957803	32.284488
15.5550	15.5600	20	4	983.58558	116.25495	627.20618	34.743838	31.678322	32.209564
15.5600	15.5650	22	0	982.92437	116.17701	626.87270	34.669249	31.444109	32.046344
15.5650	15.5700	31	6	982.26328	116.09908	626.53928	34.594674	31.209940	31.883155
15.5700	15.5750	24	3	981.60252	116.02119	625.45506	34.520463	30.967587	31.705451
15.5750	15.5800	28	5	980.94224	115.94336	624.08553	34.446429	30.722245	31.522312
15.5800	15.5850	45	2	980.28165	115.86549	623.02824	34.372135	30.551907	31.364395
15.5850	15.5900	38	3	979.62117	115.78763	623.05202	34.297066	30.641101	31.293924
15.5900	15.5950	41	1	978.96044	115.70974	623.07580	34.221969	30.730328	31.223426
15.5950	15.6000	63	4	978.30050	115.63195	622.33783	34.146996	30.921314	31.051834
15.6000	15.6050	60	9	977.64064	115.55417	621.30987	34.072046	31.151069	30.841732
15.6050	15.6100	67	2	976.98101	115.47642	620.46175	33.997259	31.403790	30.616361
15.6100	15.6150	96	4	976.32231	115.39877	620.23568	33.923056	31.735886	30.338231
15.6150	15.6200	107	4	975.66336	115.32110	620.00953	33.848824	32.068108	30.059995
15.6200	15.6250	107	9	975.00466	115.24346	619.49196	33.774050	32.283492	29.899109
15.6250	15.6300	92	6	974.34571	115.16580	618.86320	33.699032	32.454518	29.782804
15.6300	15.6350	91	11	973.68626	115.08809	618.06759	33.623525	32.656180	29.621717
15.6350	15.6400	76	7	973.02396	115.01004	616.69358	33.546203	32.964139	29.305480
15.6400	15.6450	73	7	972.36191	114.93201	615.32009	33.468910	33.271981	28.989362
15.6450	15.6500	57	8	971.69989	114.85400	614.84381	33.391826	33.403639	28.990033
15.6500	15.6550	37	5	971.03793	114.77599	614.70931	33.314826	33.468180	29.111367
15.6550	15.6600	28	2	970.37871	114.69830	614.41451	33.238045	33.517758	29.215335
15.6600	15.6650	37	1	969.72833	114.62163	613.56440	33.161941	33.515581	29.259287
15.6650	15.6700	22	2	969.07820	114.54499	612.71462	33.085865	33.513406	29.303222
15.6700	15.6750	21	3	968.42848	114.46841	611.86215	33.010170	33.465430	29.651041
15.6750	15.6800	22	8	967.77927	114.39189	611.00910	32.934658	33.400040	30.114386
15.6800	15.6850	15	3	967.13015	114.31538	610.21735	32.859235	33.332348	30.518513
15.6850	15.6900	19	4	966.48179	114.23898	609.63830	32.784167	33.256735	30.717398
15.6900	15.6950	15	2	965.83355	114.16259	609.05935	32.709112	33.181137	30.916245
15.6950	15.7000	15	2	965.18570	114.08624	608.51939	32.634458	33.105875	31.186678
15.7000	15.7050	17	4	964.53834	114.00994	607.99458	32.559995	33.030780	31.484248
15.7050	15.7100	10	0	963.89097	113.93365	607.41984	32.485606	32.955779	31.719529
15.7100	15.7150	14	3	963.24466	113.85747	606.67336	32.411598	32.881227	31.738919
15.7150	15.7200	13	2	962.59809	113.78127	605.92659	32.337561	32.806646	31.758318
15.7200	15.7250	19	3	961.95252	113.70519	604.84345	32.263954	32.732536	31.745677
15.7250	15.7300	8	4	961.30711	113.62912	603.63190	32.190485	32.658580	31.720834
15.7300	15.7350	19	4	960.65390	113.55213	602.67887	32.116883	32.584446	31.685101
15.7350	15.7400	16	3	959.97376	113.47196	602.62117	32.042836	32.509710	31.611665
15.7400	15.7450	22	4	959.29336	113.39175	602.56344	31.968760	32.434945	31.538200
15.7450	15.7500	25	4	958.59421	113.30934	601.90154	31.894330	32.359906	31.464457
15.7500	15.7550	31	5	957.88755	113.22604	601.00900	31.819724	32.284723	31.390568
15.7550	15.7600	23	2	957.18143	113.14281	600.05151	31.745281	32.209674	31.316807
15.7600	15.7650	23	5	956.47600	113.05964	598.86743	31.671274	32.134960	31.243366
15.7650	15.7700	43	5	955.77084	112.97651	597.68380	31.597296	32.060274	31.169953
15.7700	15.7750	26	2	955.06652	112.89348	597.04306	31.523649	31.985962	31.096895
15.7750	15.7800	36	4	954.36258	112.81051	596.60931	31.450133	31.911797	31.023978
15.7800	15.7850	25	3	953.65906	112.72758	595.95118	31.376737	31.837760	30.951191
15.7850	15.7900	24	2	952.95630	112.64473	594.51483	31.303677	31.764089	30.878781
15.7900	15.7950	27	2	952.25379	112.56192	593.07902	31.230645	31.690446	30.806398
15.7950	15.8000	44	2	951.55081	112.47906	592.51622	31.156993	31.615927	30.733172
15.8000	15.8050	45	2	950.84802	112.39624	592.28644	31.083145	31.541113	30.659663
15.8050	15.8100	70	2	950.14782	112.31371	591.96317	31.008727	31.465809	30.585654
15.8100	15.8150	55	6	949.45710	112.23226	591.31596	30.932386	31.388855	30.509959
15.8150	15.8200	84	11	948.76651	112.15083	590.66888	30.856059	31.311915	30.434278
15.8200	15.8250	83	5	948.09417	112.07156	589.72717	30.780774	31.235870	30.359668
15.8250	15.8300	99	5	947.42915	111.99316	588.67355	30.705927	31.160207	30.285505
15.8300	15.8350	79	7	946.76414	111.91476	587.66930	30.631153	31.084673	30.211393
15.8350	15.8400	79	8	946.10028	111.83654	586.83780	30.556761	31.009720	30.137581
15.8400	15.8450	69	5	945.43618	111.75830	586.00599	30.482341	30.934738	30.063741
15.8450	15.8500	60	3	944.77300	111.68015	584.80096	30.408401	30.860160	29.990309
15.8500	15.8550	72	9	944.10994	111.60201	583.45328	30.334619	30.785709	29.917007
15.8550	15.8600	86	6	943.44711	111.52390	582.31934	30.260898	30.711358	29.843803
15.8600	15.8650	85	6	942.78515	111.44590	581.92652	30.187400	30.637366	29.770956
15.8650	15.8700	63	5	942.12294	111.36787	581.53355	30.113875	30.563346	29.698080
15.8700	15.8750	85	3	941.46091	111.28985	580.61231	30.039772	30.488625	29.624627
15.8750	15.8800	71	3	940.79859	111.21179	579.48908	29.965410	30.413598	29.550914
15.8800	15.8850	58	7	940.13678	111.13380	578.51477	29.891185	30.338707	29.477357
15.8850	15.8900	47	8	939.47558	111.05588	578.05531	29.817312	30.264159	29.404212
15.8900	15.8950	51	3	938.81463	110.97799	577.59603	29.743468	30.189640	29.331095
15.8950	15.9000	26	9	938.14177	110.89868	576.94718	29.669355	30.114988	29.257722
15.9000	15.9050	23	7	937.46440	110.81884	576.22599	29.595147	30.040290	29.184257
15.9050	15.9100	19	7	936.78684	110.73898	575.27866	29.521033	29.965651	29.110868
15.9100	15.9150	28	1	936.10788	110.65896	573.54544	29.447172	29.891136	29.037661
15.9150	15.9200	27	4	935.42919	110.57898	571.81288	29.373338	29.816648	28.964483
15.9200	15.9250	21	4	934.75121	110.49907	571.01230	29.299730	29.742525	28.891640
15.9250	15.9300	22	7	934.07386	110.41923	570.56774	29.226247	29.668579	28.818964
15.9300	15.9350	13	1	933.39663	110.33941	569.96151	29.152886	29.594740	28.746412
15.9350	15.9400	22	3	932.72022	110.25971	568.79459	29.079996	29.521317	28.674341
15.9400	15.9450	23	5	932.04395	110.18002	567.62788	29.007119	29.447908	28.602283
15.9450	15.9500	29	2	931.36830	110.10038	566.73803	28.934559	29.374885	28.530516
15.9500	15.9550	38	3	930.69325	110.02082	565.95438	28.862157	29.302049	28.458897
15.9550	15.9600	39	5	930.01829	109.94125	565.17542	28.789846	29.229319	28.387388
15.9600	15.9650	47	4	929.34479	109.86185	564.41403	28.717974	29.157082	28.316386
15.9650	15.9700	50	9	928.67104	109.78242	563.65235	28.646075	29.084818	28.245356
15.9700	15.9750	88	6	927.99884	109.70317	562.25491	28.574634	29.012965	28.174747
15.9750	15.9800	94	7	927.32700	109.62396	560.61450	28.503345	28.941244	28.104276
15.9800	15.9850	128	10	926.65567	109.54482	559.19274	28.432171	28.869652	28.033920
15.9850	15.9900	124	11	925.98619	109.46592	558.52962	28.361411	28.798516	27.963978
15.9900	15.9950	158	5	925.31646	109.38700	557.86625	28.290624	28.727354	27.894008
15.9950	16.0000	177	15	924.64799	109.30822	555.99740	28.220371	28.656583	27.824497
16.0000	16.0050	198	15	923.97989	109.22948	553.66814	28.150312	28.585952	27.755150
16.0050	16.0100	183	16	923.31176	109.15074	551.70973	28.080333	28.515432	27.685909
16.0100	16.0150	169	12	922.64438	109.07207	551.04301	28.010729	28.445394	27.617130
16.0150	16.0200	163	13	921.97725	108.99343	550.37654	27.941150	28.375383	27.548378
16.0200	16.0250	136	14	921.30826	108.91458	549.49148	27.871871	28.305741	27.479912
16.0250	16.0300	124	11	920.63829	108.83562	548.52252	27.802679	28.236214	27.411529
16.0300	16.0350	114	9	919.96857	108.75668	547.36996	27.733597	28.166750	27.343265
16.0350	16.0400	125	6	919.29995	108.67789	545.58114	27.664920	28.097535	27.275438
16.0400	16.0450	113	6	918.63133	108.59909	543.79233	27.596242	28.028319	27.207610
16.0450	16.0500	113	6	917.96338	108.52036	542.25026	27.527855	27.959483	27.140136
16.0500	16.0550	117	10	917.29604	108.44170	540.80326	27.459615	27.890828	27.072831
16.0550	16.0600	154	7	916.63180	108.36341	538.75999	27.391206	27.821969	27.005335
16.0600	16.0650	158	13	915.97809	108.28637	534.64297	27.322182	27.752372	26.937147
16.0650	16.0700	185	11	915.32438	108.20934	530.52596	27.253158	27.682776	26.868959
16.0700	16.0750	207	15	914.67634	108.13296	528.37697	27.184667	27.613690	26.801238
16.0750	16.0800	180	8	914.03035	108.05682	526.97854	27.116370	27.544787	26.733686
16.0800	16.0850	200	9	913.38438	107.98068	524.90047	27.048155	27.475959	26.666258
16.0850	16.0900	156	10	912.73956	107.90469	520.46529	26.980339	27.407503	26.599374
16.0900	16.0950	152	10	912.09474	107.82869	516.03010	26.912523	27.339047	26.532490
16.0950	16.1000	111	8	911.44825	107.75251	510.34929	26.844975	27.270881	26.465748
16.1000	16.1050	89	10	910.80123	107.67627	504.19266	26.777541	27.202836	26.399071
16.1050	16.1100	86	11	910.15356	107.59995	499.07907	26.710210	27.134893	26.332515
16.1100	16.1150	83	6	909.50275	107.52322	497.58025	26.643146	27.067213	26.266294
16.1150	16.1200	73	3	908.85169	107.44645	496.08086	26.576057	26.999508	26.200048
16.1200	16.1250	47	2	908.20173	107.36981	496.89157	26.509366	26.932181	26.134055
16.1250	16.1300	50	6	907.55211	107.29320	498.58504	26.442816	26.864988	26.068150
16.1300	16.1350	43	8	906.90242	107.21659	501.53154	26.376362	26.797882	26.002327
16.1350	16.1400	28	2	906.25336	107.14008	508.83391	26.310328	26.731165	25.936884
16.1400	16.1450	45	2	905.60455	107.06360	516.13350	26.244319	26.664473	25.871465
16.1450	16.1500	51	6	904.96373	106.98808	523.35572	26.178832	26.598349	25.806585
16.1500	16.1550	37	1	904.32573	106.91291	530.55109	26.113520	26.532417	25.741887
16.1550	16.1600	47	5	903.68797	106.83776	537.65098	26.048327	26.466585	25.677294
16.1600	16.1650	56	5	903.05131	106.76273	544.41670	25.983574	26.401123	25.613094
16.1650	16.1700	36	3	902.41465	106.68770	551.18242	25.918820	26.335661	25.548893
16.1700	16.1750	37	3	901.77765	106.61262	555.10734	25.853536	26.269739	25.484204
16.1750	16.1800	49	1	901.14085	106.53757	557.94359	25.788083	26.203675	25.419363
16.1800	16.1850	38	3	900.50312	106.46241	560.07946	25.722680	26.137681	25.354572
16.1850	16.1900	28	5	899.86186	106.38684	559.77790	25.657423	26.071904	25.289930
16.1900	16.1950	29	2	899.22060	106.31127	559.47634	25.592167	26.006128	25.225289
16.1950	16.2000	15	3	898.57799	106.23553	558.87824	25.527291	25.940599	25.160986
16.2000	16.2050	15	4	897.93476	106.15971	558.16678	25.462552	25.875157	25.096803
16.2050	16.2100	16	2	897.29155	106.08390	557.45819	25.397885	25.809819	25.032702
16.2100	16.2150	18	4	896.64952	106.00822	556.76078	25.333582	25.744961	24.968992
16.2150	16.2200	11	2	896.00749	105.93255	556.06336	25.269278	25.680103	24.905282
16.2200	16.2250	25	3	895.35821	105.85602	555.35034	25.205074	25.615269	24.841876
16.2250	16.2300	20	4	894.70625	105.77918	554.63143	25.140917	25.550455	24.778597
16.2300	16.2350	39	3	894.05034	105.70187	553.91959	25.076769	25.485651	24.715270
16.2350	16.2400	17	1	893.37985	105.62283	553.23141	25.012568	25.420799	24.651697
16.2400	16.2450	33	0	892.70909	105.54376	552.54297	24.948343	25.355922	24.588099
16.2450	16.2500	42	4	892.03943	105.46482	551.81213	24.884474	25.291403	24.524835
16.2500	16.2550	28	3	891.37008	105.38591	551.06497	24.820732	25.227011	24.461689
16.2550	16.2600	28	4	890.70085	105.30701	550.32946	24.757080	25.162705	24.398637
16.2600	16.2650	23	2	890.03289	105.22823	549.63547	24.693824	25.098785	24.335994
16.2650	16.2700	27	3	889.36518	105.14947	548.94174	24.630593	25.034890	24.273376
16.2700	16.2750	26	2	888.71477	105.07277	548.24021	24.567667	24.971255	24.210984
16.2750	16.2800	34	2	888.07073	104.99683	547.53544	24.504834	24.907695	24.148656
16.2800	16.2850	30	5	887.42795	104.92105	546.82886	24.442124	24.844216	24.086411
16.2850	16.2900	32	8	886.78975	104.84582	546.11631	24.379866	24.781044	24.024481
16.2900	16.2950	35	8	886.15154	104.77059	545.40375	24.317608	24.717872	23.962551
16.2950	16.3000	29	4	885.51384	104.69543	544.72043	24.255534	24.655044	23.900962
16.3000	16.3050	37	3	884.87666	104.62032	544.04867	24.193563	24.592381	23.839535
16.3050	16.3100	32	1	884.23911	104.54518	543.37122	24.131694	24.529807	23.778190
16.3100	16.3150	39	2	883.60001	104.46985	542.67375	24.070161	24.467517	23.717102
16.3150	16.3200	32	6	882.96092	104.39453	541.97627	24.008628	24.405227	23.656015
16.3200	16.3250	30	0	882.31967	104.31894	541.28210	23.947289	24.343199	23.595210
16.3250	16.3300	28	2	881.67751	104.24324	540.58910	23.886016	24.281262	23.534504
16.3300	16.3350	24	4	881.03536	104.16754	539.89798	23.824823	24.219405	23.473881
16.3350	16.3400	27	2	880.39434	104.09197	539.21456	23.764011	24.157936	23.413653
16.3400	16.3450	33	4	879.75332	104.01641	538.53115	23.703200	24.096467	23.353426
16.3450	16.3500	26	3	879.11284	103.94091	537.84110	23.642735	24.035293	23.293476
16.3500	16.3550	22	4	878.47267	103.86545	537.14861	23.582411	23.974242	23.233643
16.3550	16.3600	20	4	877.83992	103.79086	536.46124	23.522373	23.913504	23.174117
16.3600	16.3650	15	4	877.23212	103.71922	535.79073	23.463249	23.853776	23.115583
16.3650	16.3700	21	0	876.62410	103.64755	535.11997	23.404103	23.794025	23.057026
16.3700	16.3750	11	2	876.01792	103.57610	534.45187	23.345393	23.734627	22.998820
16.3750	16.3800	10	0	875.41235	103.50472	533.78470	23.286841	23.675356	22.940740
16.3800	16.3850	6	3	874.80676	103.43335	533.11789	23.228334	23.616161	22.882734
16.3850	16.3900	12	2	874.20192	103.36206	532.45319	23.170060	23.557311	22.825065
16.3900	16.3950	6	2	873.59731	103.29080	531.78875	23.111808	23.498484	22.767417
16.3950	16.4000	5	1	872.99360	103.21965	531.12232	23.053202	23.439264	22.709374
16.4000	16.4050	7	4	872.39000	103.14852	530.45488	22.994437	23.379871	22.651156
16.4050	16.4100	5	4	871.78262	103.07693	529.78423	22.935453	23.320265	22.592729
16.4100	16.4150	12	4	871.16227	103.00380	529.10270	22.875730	23.259942	22.533595
16.4150	16.4200	8	1	870.54192	102.93067	528.42116	22.816008	23.199619	22.474460
16.4200	16.4250	9	3	869.92205	102.85760	527.74144	22.756552	23.139689	22.415616
16.4250	16.4300	14	1	869.30269	102.78459	527.06276	22.697229	23.079942	22.356913
16.4300	16.4350	17	0	868.66898	102.70989	526.37585	22.637642	23.019901	22.297963
16.4350	16.4400	12	1	867.98496	102.62924	525.65993	22.577109	22.958814	22.238123
16.4400	16.4450	13	3	867.30094	102.54860	524.94402	22.516575	22.897727	22.178283
16.4450	16.4500	12	2	866.59106	102.46489	524.21414	22.455731	22.836473	22.118046
16.4500	16.4550	16	2	865.87117	102.38000	523.47880	22.394758	22.775146	22.057648
16.4550	16.4600	7	0	865.15128	102.29511	522.74384	22.331097	22.713853	21.997329
16.4600	16.4650	16	2	864.43262	102.21038	522.01149	22.258170	22.652784	21.937390
16.4650	16.4700	6	1	863.71396	102.12564	521.27913	22.185242	22.591714	21.877451
16.4700	16.4750	17	3	862.99600	102.04099	520.54849	22.099781	22.530950	21.817856
16.4750	16.4800	9	4	862.27841	101.95638	519.81861	22.009521	22.470313	21.758403
16.4800	16.4850	9	2	861.56670	101.87246	519.09291	21.906743	22.409956	21.699199
16.4850	16.4900	8	1	860.87447	101.79083	518.38082	21.760208	22.350499	21.640785
16.4900	16.4950	9	5	860.18199	101.70918	517.66846	21.613617	22.291020	21.582348
16.4950	16.5000	7	2	859.50634	101.62954	516.96768	21.407032	22.232169	21.524704
16.5000	16.5050	5	2	858.83704	101.55066	516.27124	21.177424	22.173550	21.467355
16.5050	16.5100	9	2	858.16779	101.47178	515.57519	20.952457	22.115015	21.410083
16.5100	16.5150	7	1	857.49958	101.39300	514.88139	20.743991	22.056852	21.353158
16.5150	16.5200	4	2	856.83163	101.31425	514.18786	20.535605	21.998710	21.296254
16.5200	16.5250	4	0	856.16435	101.23558	513.49642	20.252578	21.940867	21.239735
16.5250	16.5300	3	3	855.49707	101.15691	512.80552	19.940807	21.883116	21.183342
16.5300	16.5350	2	0	854.82284	101.07742	512.11094	19.648791	21.825292	21.126877
16.5350	16.5400	9	2	854.12468	100.99509	511.40376	19.425709	21.767238	21.070179
16.5400	16.5450	7	3	853.42653	100.91277	510.69658	19.202627	21.709184	21.013481
16.5450	16.5500	8	3	852.69521	100.82651	509.97182	18.955873	21.650575	20.956227
16.5500	16.5550	7	1	851.95156	100.73879	509.24070	18.700165	21.591784	20.898790
16.5550	16.5600	3	2	851.20821	100.65111	508.51046	18.447302	21.533081	20.841431
16.5600	16.5650	7	3	850.46562	100.56353	507.78304	18.204292	21.474663	20.784324
16.5650	16.5700	9	2	849.72304	100.47595	507.05561	17.961282	21.416244	20.727217
16.5700	16.5750	10	6	848.98204	100.38856	506.32440	17.787118	21.357323	20.669584
16.5750	16.5800	7	2	848.24154	100.30122	505.59162	17.639319	21.298202	20.611742
16.5800	16.5850	8	5	847.54854	100.21951	504.88654	17.469473	21.240246	20.555040
16.5850	16.5900	13	3	847.02247	100.15753	504.27932	17.222990	21.186457	20.502413
16.5900	16.5950	11	1	846.49640	100.09556	503.67211	16.976507	21.132668	20.449785
16.5950	16.6000	12	3	846.03261	100.04095	503.10230	16.823845	21.080722	20.398945
16.6000	16.6050	13	1	845.59283	99.989170	502.54695	16.707251	21.029492	20.348800
16.6050	16.6100	15	3	845.15336	99.937434	501.99226	16.573321	20.978363	20.298764
16.6100	16.6150	14	4	844.71444	99.885767	501.43916	16.378725	20.927519	20.249044
16.6150	16.6200	8	2	844.27536	99.834079	500.88585	16.184055	20.876655	20.199305
16.6200	16.6250	13	1	843.78154	99.775912	500.30135	16.085095	20.824705	20.148467
16.6250	16.6300	10	4	843.26665	99.715250	499.70481	16.022836	20.772329	20.097199
16.6300	16.6350	10	2	842.73315	99.652387	499.09749	15.985804	20.716181	20.045554
16.6350	16.6400	10	1	842.13531	99.581916	498.45332	16.036993	20.646921	19.992663
16.6400	16.6450	11	2	841.53770	99.511471	497.80939	16.088162	20.577688	19.939791
16.6450	16.6500	13	3	840.94066	99.441103	497.16751	16.070848	20.506735	19.887220
16.6500	16.6550	14	6	840.34362	99.370737	496.52617	16.027216	20.435095	19.834744
16.6550	16.6600	9	1	839.74489	99.300168	495.88414	16.023808	20.321539	19.782314
16.6600	16.6650	13	3	839.14053	99.228918	495.23992	16.160655	20.061872	19.730064
16.6650	16.6700	9	3	838.53617	99.157669	494.59569	16.297502	19.802206	19.677814
16.6700	16.6750	12	2	837.93288	99.086558	493.95352	16.348793	19.570917	19.625831
16.6750	16.6800	15	2	837.33033	99.015538	493.31247	16.367214	19.350645	19.573977
16.6800	16.6850	22	4	836.72829	98.944576	492.67208	16.393397	19.113489	19.522222
16.6850	16.6900	16	6	836.12781	98.873787	492.03374	16.446743	18.817175	19.470791
16.6900	16.6950	15	2	835.52734	98.802998	491.39540	16.500090	18.520861	19.419359
16.6950	16.7000	14	3	834.92735	98.732277	490.75451	16.571601	18.195929	19.367692
16.7000	16.7050	16	3	834.32745	98.661572	490.11254	16.650094	17.859967	19.315926
16.7050	16.7100	16	4	833.73082	98.591248	489.47255	16.690929	17.550874	19.264265
16.7100	16.7150	25	4	833.14663	98.522372	488.84055	16.600089	17.336215	19.213056
16.7150	16.7200	22	3	832.56244	98.453497	488.20855	16.509249	17.121556	19.161847
16.7200	16.7250	40	3	831.87880	98.372870	487.51958	16.549541	16.911406	19.101723
16.7250	16.7300	58	4	831.15701	98.287735	486.80879	16.640264	16.703022	19.038179
16.7300	16.7350	64	4	830.41610	98.200340	486.08744	16.690083	16.502835	18.940579
16.7350	16.7400	92	9	829.60736	98.104929	485.32823	16.597051	16.331026	18.723861
16.7400	16.7450	83	8	828.79831	98.009483	484.56873	16.503984	16.159152	18.507061
16.7450	16.7500	119	13	828.01140	97.916656	483.82377	16.540416	15.974072	18.136864
16.7500	16.7550	171	9	827.23288	97.824822	483.08428	16.626604	15.783891	17.707682
16.7550	16.7600	249	12	826.49720	97.738054	482.37013	16.682886	15.595651	17.316120
16.7600	16.7650	276	14	825.91251	97.669137	481.74559	16.634409	15.414453	17.056770
16.7650	16.7700	300	13	825.32804	97.600247	481.12130	16.585950	15.233324	16.797519
16.7700	16.7750	303	23	824.74433	97.531445	480.49880	16.529238	15.078591	16.515109
16.7750	16.7800	345	20	824.16069	97.462650	479.87675	16.469329	14.933955	16.223679
16.7800	16.7850	323	25	823.57729	97.393886	479.25528	16.429307	14.787641	15.955830
16.7850	16.7900	280	18	822.99497	97.325253	478.63608	16.458780	14.635519	15.770471
16.7900	16.7950	222	15	822.41266	97.256619	478.01687	16.488253	14.483398	15.585112
16.7950	16.8000	185	16	821.83971	97.189091	477.40433	16.429841	14.499951	15.415602
16.8000	16.8050	124	4	821.27066	97.122024	476.79468	16.337666	14.581354	15.252278
16.8050	16.8100	89	6	820.69701	97.054411	476.18274	16.268637	14.654204	15.093354
16.8100	16.8150	79	6	820.10697	96.984863	475.56256	16.280674	14.697117	14.949792
16.8150	16.8200	64	4	819.51693	96.915314	474.94237	16.292710	14.740030	14.806229
16.8200	16.8250	43	5	818.88345	96.840624	474.29446	16.237637	14.786025	14.660280
16.8250	16.8300	43	5	818.23320	96.763948	473.63580	16.156776	14.833211	14.513392
16.8300	16.8350	26	6	817.58295	96.687272	472.97745	16.085927	14.901472	14.367316
16.8350	16.8400	31	3	816.93380	96.610727	472.32128	16.050230	15.043347	14.224333
16.8400	16.8450	14	2	816.28466	96.534181	471.66511	16.014533	15.185221	14.081349
16.8450	16.8500	17	6	815.64180	96.458363	471.01386	16.038751	15.252067	13.939300
16.8500	16.8550	20	6	815.00146	96.382835	470.36459	16.086040	15.290008	13.797632
16.8550	16.8600	14	2	814.36189	96.307401	469.71630	16.100807	15.332202	13.667068
16.8600	16.8650	14	6	813.72414	96.232193	469.07055	16.001816	15.389334	13.575177
16.8650	16.8700	11	1	813.08616	96.156955	468.42456	15.902787	15.446489	13.483252
16.8700	16.8750	16	2	812.44911	96.081842	467.78058	15.886595	15.452820	13.462986
16.8750	16.8800	13	4	811.81233	96.006765	467.13729	15.902242	15.439617	13.470262
16.8800	16.8850	13	3	811.17544	95.931672	466.49427	15.893847	15.428467	13.532479
16.8850	16.8900	14	2	810.53900	95.856625	465.85309	15.801275	15.424517	13.786994
16.8900	16.8950	15	5	809.90280	95.781606	465.21216	15.708738	15.420570	14.041412
16.8950	16.9000	16	4	809.26530	95.706431	464.57203	15.686212	15.446810	14.149760
16.9000	16.9050	13	1	808.62704	95.631168	463.93198	15.690620	15.484679	14.201932
16.9050	16.9100	8	2	807.98903	95.555932	463.29250	15.691481	15.512428	14.269032
16.9100	16.9150	12	1	807.35210	95.480824	462.65525	15.679937	15.504790	14.388293
16.9150	16.9200	14	1	806.71516	95.405715	462.01799	15.668393	15.497151	14.507555
16.9200	16.9250	14	3	806.08900	95.331874	461.38827	15.614866	15.519648	14.561978
16.9250	16.9300	14	1	805.46732	95.258560	460.76177	15.545207	15.553733	14.591415
16.9300	16.9350	17	6	804.85026	95.185793	460.13836	15.494577	15.567060	14.609497
16.9350	16.9400	11	3	804.24916	95.114922	459.52556	15.510682	15.507571	14.587752
16.9400	16.9450	6	1	803.64807	95.044050	458.91275	15.526788	15.448082	14.566007
16.9450	16.9500	19	3	803.05436	94.974052	458.30541	15.467237	15.420416	14.555467
16.9500	16.9550	16	1	802.46340	94.904379	457.70009	15.378589	15.404981	14.549234
16.9550	16.9600	19	4	801.87241	94.834704	457.09503	15.314899	15.395233	14.537139
16.9600	16.9650	14	7	801.28236	94.765138	456.49191	15.338721	15.405420	14.504538
16.9650	16.9700	31	6	800.69231	94.695572	455.88879	15.362543	15.415606	14.471937
16.9700	16.9750	24	8	800.10272	94.626059	455.28708	15.339584	15.394443	14.458013
16.9750	16.9800	20	4	799.51340	94.556576	454.68599	15.298606	15.361206	14.451288
16.9800	16.9850	35	6	798.92326	94.486996	454.08515	15.248827	15.334022	14.442906
16.9850	16.9900	38	7	798.32945	94.416979	453.48432	15.168182	15.327986	14.428720
16.9900	16.9950	35	4	797.73541	94.346936	452.88327	15.087507	15.321947	14.414528
16.9950	17.0000	57	7	797.11368	94.273728	452.04902	15.049300	15.230517	14.353526
17.0000	17.0050	62	7	796.48120	94.199291	451.12494	15.027427	15.106220	14.274503
17.0050	17.0100	76	7	795.84603	94.124549	450.17816	14.985517	14.999864	14.203845
17.0100	17.0150	125	10	795.20227	94.048832	449.15307	14.873391	14.956571	14.162617
17.0150	17.0200	161	14	794.55875	93.973145	448.12837	14.761308	14.913295	14.121406
17.0200	17.0250	151	7	793.94310	93.900641	447.33138	14.723845	14.890193	14.074675
17.0250	17.0300	201	14	793.33796	93.829336	446.62184	14.715124	14.874857	14.025800
17.0300	17.0350	284	15	792.73441	93.758222	445.90985	14.679221	14.846807	13.982620
17.0350	17.0400	331	34	792.13670	93.687803	445.18954	14.548123	14.774239	13.959404
17.0400	17.0450	388	19	791.53899	93.617385	444.46924	14.417026	14.701672	13.936188
17.0450	17.0500	467	34	790.96564	93.549753	443.94949	14.374311	14.672747	13.936611
17.0500	17.0550	465	25	790.40198	93.483230	443.50726	14.365664	14.660650	13.946139
17.0550	17.0600	438	25	789.84256	93.417220	443.04218	14.363785	14.637849	13.942228
17.0600	17.0650	466	27	789.29781	93.352983	442.49671	14.385656	14.577477	13.891157
17.0650	17.0700	442	21	788.75305	93.288746	441.95124	14.407527	14.517106	13.840086
17.0700	17.0750	338	24	788.24856	93.229117	441.71753	14.373785	14.537706	13.863008
17.0750	17.0800	373	18	787.75949	93.171251	441.60372	14.318642	14.589462	13.914401
17.0800	17.0850	408	22	787.26263	93.112476	441.46241	14.278056	14.620133	13.948814
17.0850	17.0900	369	33	786.73929	93.050612	441.22482	14.288596	14.576794	13.923609
17.0900	17.0950	413	19	786.21594	92.988748	440.98724	14.299136	14.533455	13.898404
17.0950	17.1000	436	22	785.68967	92.926552	440.72340	14.281837	14.534345	13.924039
17.1000	17.1050	397	24	785.16233	92.864237	440.44947	14.253798	14.552304	13.969290
17.1050	17.1100	356	19	784.62619	92.800924	440.09995	14.222948	14.560980	13.992747
17.1100	17.1150	282	20	784.05844	92.734025	439.48500	14.182199	14.537124	13.939830
17.1150	17.1200	213	13	783.49048	92.667101	438.86982	14.141435	14.513258	13.886894
17.1200	17.1250	143	9	782.93294	92.601373	438.30183	14.104574	14.448367	13.859293
17.1250	17.1300	96	10	782.37932	92.536097	437.75194	14.069211	14.367663	13.841448
17.1300	17.1350	82	12	781.83426	92.471800	437.26317	14.031331	14.315362	13.830408
17.1350	17.1400	70	5	781.31994	92.411026	436.98963	13.984664	14.362852	13.843279
17.1400	17.1450	53	4	780.80582	92.350274	436.71619	13.938014	14.410324	13.856144
17.1450	17.1500	45	5	780.31795	92.292495	436.65514	13.973796	14.431224	13.865152
17.1500	17.1550	34	7	779.84000	92.235841	436.67600	14.041392	14.441880	13.872676
17.1550	17.1600	30	6	779.36625	92.179672	436.73083	14.090218	14.458699	13.889097
17.1600	17.1650	27	6	778.90735	92.125225	436.90469	14.073225	14.497115	13.936699
17.1650	17.1700	19	3	778.44845	92.070778	437.07855	14.056232	14.535530	13.984302
17.1700	17.1750	22	0	777.93733	92.010433	436.71633	14.064958	14.506117	13.968941
17.1750	17.1800	15	2	777.40634	91.947844	436.14751	14.083601	14.450554	13.929298
17.1800	17.1850	19	6	776.87823	91.885590	435.57412	14.078969	14.404331	13.887627
17.1850	17.1900	19	4	776.36002	91.824495	434.98446	13.992492	14.390935	13.838811
17.1900	17.1950	21	5	775.84182	91.763399	434.39480	13.906015	14.377538	13.789994
17.1950	17.2000	18	3	775.30056	91.699679	433.05684	13.823400	14.338858	13.750526
17.2000	17.2050	12	5	774.75034	91.634940	431.43050	13.742260	14.290434	13.714651
17.2050	17.2100	8	2	774.22756	91.573362	429.26883	13.689663	14.245919	13.682613
17.2100	17.2150	16	6	773.80196	91.522990	425.23208	13.737336	14.215200	13.664099
17.2150	17.2200	17	2	773.37635	91.472617	421.19532	13.785008	14.184481	13.645585
17.2200	17.2250	9	3	772.95950	91.423365	416.52641	13.774423	14.203505	13.662270
17.2250	17.2300	15	2	772.54609	91.374554	411.61399	13.741333	14.241742	13.692550
17.2300	17.2350	17	1	772.13655	91.326183	406.47448	13.717061	14.268283	13.708791
17.2350	17.2400	16	3	771.74004	91.279293	400.53092	13.723707	14.253803	13.675773
17.2400	17.2450	14	0	771.34339	91.232386	394.58508	13.730356	14.239319	13.642742
17.2450	17.2500	8	4	770.93669	91.184334	388.26471	13.706882	14.217146	13.644466
17.2500	17.2550	15	1	770.52606	91.135833	381.79901	13.671792	14.192006	13.659590
17.2550	17.2600	10	2	770.07455	91.082550	375.89949	13.630221	14.168606	13.659627
17.2600	17.2650	6	0	769.47993	91.012529	371.99790	13.565921	14.151355	13.606635
17.2650	17.2700	13	4	768.88553	90.942534	368.09780	13.501646	14.134110	13.553664
17.2700	17.2750	8	1	768.14878	90.855585	363.77464	13.480353	14.075153	13.498206
17.2750	17.2800	6	2	767.35680	90.762060	359.28653	13.475642	14.000073	13.441769
17.2800	17.2850	8	1	766.56238	90.668253	355.15891	13.447719	13.935842	13.393885
17.2850	17.2900	8	2	765.75970	90.573500	352.29733	13.338389	13.909691	13.376023
17.2900	17.2950	10	0	764.95701	90.478746	349.43576	13.229059	13.883541	13.358161
17.2950	17.3000	8	4	764.17896	90.386796	346.29734	13.207694	13.845352	13.323355
17.3000	17.3050	9	1	763.41083	90.295977	343.05369	13.220302	13.802535	13.282024
17.3050	17.3100	7	0	762.68672	90.210374	339.89751	13.206066	13.770591	13.251171
17.3100	17.3150	7	1	762.11727	90.143095	337.04794	13.097352	13.776903	13.257175
17.3150	17.3200	14	1	761.54782	90.075815	334.19837	12.988637	13.783215	13.263179
17.3200	17.3250	8	2	761.00768	90.011959	331.88824	12.983055	13.768869	13.256206
17.3250	17.3300	10	2	760.47876	89.949414	329.78569	13.017224	13.746557	13.244231
17.3300	17.3350	10	2	759.95204	89.887120	327.75370	13.039148	13.727620	13.239572
17.3350	17.3400	6	1	759.43400	89.825819	325.97321	13.017982	13.720574	13.260642
17.3400	17.3450	6	1	758.91596	89.764517	324.19272	12.996816	13.713529	13.281712
17.3450	17.3500	14	0	758.39354	89.702696	325.10439	12.929615	13.727001	13.297571
17.3500	17.3550	7	1	757.86951	89.640684	327.05678	12.844626	13.748403	13.311413
17.3550	17.3600	11	0	757.31259	89.574821	328.97228	12.772445	13.748369	13.312004
17.3600	17.3650	18	1	756.63940	89.495345	330.76074	12.745163	13.673038	13.266050
17.3650	17.3700	11	1	755.96595	89.415839	332.54988	12.717871	13.597677	13.220078
17.3700	17.3750	8	3	755.25968	89.332590	335.33850	12.552575	13.540384	13.172672
17.3750	17.3800	13	1	754.54063	89.247883	338.51339	12.333978	13.490057	13.124707
17.3800	17.3850	20	2	753.82570	89.163642	341.76047	12.145426	13.436375	13.074079
17.3850	17.3900	14	0	753.12620	89.081151	345.25749	12.062947	13.370946	13.014146
17.3900	17.3950	14	2	752.42697	88.998691	348.75317	11.980499	13.305543	12.954235
17.3950	17.4000	10	2	751.74647	88.918377	350.38048	11.857945	13.247285	12.917316
17.4000	17.4050	11	0	751.07295	88.838863	351.28595	11.719836	13.191769	12.889274
17.4050	17.4100	10	1	750.40235	88.759675	352.38297	11.592248	13.149238	12.867355
17.4100	17.4150	15	3	749.74223	88.681662	354.15260	11.501670	13.152352	12.866958
17.4150	17.4200	7	1	749.08212	88.603650	355.92222	11.411093	13.155465	12.866561
17.4200	17.4250	12	3	748.44688	88.528576	356.39308	11.394745	13.123750	12.844110
17.4250	17.4300	6	0	747.82158	88.454677	356.36195	11.407083	13.078599	12.813150
17.4300	17.4350	10	1	747.18978	88.380030	356.45064	11.402818	13.036645	12.786381
17.4350	17.4400	8	2	746.53485	88.302719	356.96146	11.340060	13.005945	12.774368
17.4400	17.4450	12	4	745.87991	88.225407	357.47227	11.277301	12.975244	12.762355
17.4450	17.4500	8	1	745.23801	88.149600	358.16603	11.312266	12.933636	12.712887
17.4500	17.4550	15	1	744.60105	88.074361	358.93051	11.384961	12.887811	12.648952
17.4550	17.4600	3	3	743.95637	87.998217	359.50876	11.440394	12.842451	12.595518
17.4600	17.4650	11	1	743.28563	87.919018	359.43052	11.434974	12.798804	12.579134
17.4650	17.4700	7	0	742.61489	87.839819	359.35228	11.429554	12.755157	12.562749
17.4700	17.4750	7	1	741.64914	87.725826	359.25967	11.446368	12.698908	12.498032
17.4750	17.4800	12	0	740.56937	87.598385	359.16150	11.471783	12.637791	12.414622
17.4800	17.4850	9	3	739.48898	87.470876	358.83930	11.509403	12.570065	12.331157
17.4850	17.4900	15	3	738.40492	87.342953	357.72873	11.590001	12.479008	12.247391
17.4900	17.4950	9	5	737.32044	87.214982	356.61773	11.670628	12.387915	12.163593
17.4950	17.5000	17	1	736.24567	87.088126	356.48306	11.710498	12.345661	12.116277
17.5000	17.5050	11	3	735.17450	86.961681	356.72562	11.734626	12.322272	12.083052
17.5050	17.5100	11	1	734.25124	86.852724	356.91032	11.789882	12.279681	12.039494
17.5100	17.5150	10	2	733.85035	86.805529	356.89094	11.954740	12.169499	11.959591
17.5150	17.5200	13	1	733.44961	86.758352	356.87156	12.119534	12.059359	11.879719
17.5200	17.5250	11	2	733.42133	86.755291	356.66896	12.202998	11.985968	11.822777
17.5250	17.5300	12	4	733.53706	86.769289	356.39543	12.255043	11.926762	11.774682
17.5300	17.5350	9	1	733.65877	86.783969	356.24939	12.322176	11.863496	11.725859
17.5350	17.5400	19	0	733.80142	86.801037	356.55142	12.442303	11.785991	11.674500
17.5400	17.5450	7	1	733.94407	86.818105	356.85344	12.562430	11.708485	11.623141
17.5450	17.5500	13	1	734.04260	86.830142	356.57637	12.661378	11.574524	11.531593
17.5500	17.5550	10	1	734.12403	86.840228	356.07558	12.752088	11.418809	11.424557
17.5550	17.5600	8	1	734.06043	86.833152	355.60428	12.821293	11.267354	11.325666
17.5600	17.5650	10	0	733.48550	86.765565	355.23680	12.814706	11.130857	11.255448
17.5650	17.5700	14	1	732.91057	86.697978	354.86932	12.808119	10.994360	11.185231
17.5700	17.5750	14	3	732.32862	86.629470	354.47879	12.824268	10.844256	11.085220
17.5750	17.5800	19	2	731.74388	86.560597	354.07931	12.849201	10.688876	10.973688
17.5800	17.5850	14	1	731.15838	86.491627	353.61047	12.862604	10.538868	10.875311
17.5850	17.5900	31	3	730.57123	86.422434	352.89814	12.835387	10.408038	10.823426
17.5900	17.5950	30	2	729.98407	86.353242	352.18582	12.808170	10.277208	10.771542
17.5950	17.6000	30	3	729.40591	86.285090	351.72839	12.786837	10.225515	10.684061
17.6000	17.6050	40	4	728.83133	86.217352	351.36975	12.767785	10.204477	10.582807
17.6050	17.6100	37	2	728.26199	86.150220	350.98381	12.746854	10.186234	10.479020
17.6100	17.6150	57	7	727.71038	86.085132	350.50128	12.719279	10.177808	10.366177
17.6150	17.6200	52	2	727.15855	86.020019	350.01855	12.691694	10.169379	10.253291
17.6200	17.6250	62	6	726.64048	85.958970	350.08656	12.653960	10.188545	10.148678
17.6250	17.6300	54	2	726.13537	85.899483	350.36749	12.612295	10.218382	10.047248
17.6300	17.6350	52	2	725.63176	85.840161	350.43133	12.571850	10.244817	9.9386608
17.6350	17.6400	29	1	725.13408	85.781505	349.72913	12.535761	10.259214	9.8049673
17.6400	17.6450	40	1	724.63660	85.722870	349.02720	12.499686	10.273606	9.6713248
17.6450	17.6500	26	2	724.13450	85.663709	348.17437	12.459990	10.330211	9.5337486
17.6500	17.6550	24	3	723.63043	85.604322	347.26277	12.418877	10.403186	9.3945962
17.6550	17.6600	9	1	723.12741	85.545079	346.51083	12.374329	10.467820	9.2834025
17.6600	17.6650	16	3	722.62826	85.486368	346.32127	12.317706	10.503061	9.2706836
17.6650	17.6700	16	2	722.12911	85.427658	346.13172	12.261083	10.538302	9.2579647
17.6700	17.6750	10	1	721.61815	85.367668	345.45246	12.186095	10.576433	9.2361897
17.6750	17.6800	9	0	721.10290	85.307215	344.58388	12.104033	10.615663	9.2109185
17.6800	17.6850	9	0	720.49525	85.235856	343.65255	12.015952	10.654920	9.1909608
17.6850	17.6900	9	1	719.56087	85.125929	342.49908	11.906569	10.694285	9.1897719
17.6900	17.6950	6	1	718.62650	85.016003	341.34561	11.797186	10.733651	9.1885829
17.6950	17.7000	3	2	717.62460	84.898268	339.72176	11.660106	10.730467	9.1441740
17.7000	17.7050	9	1	716.59643	84.777496	337.91572	11.512293	10.710824	9.0830418
17.7050	17.7100	9	1	715.62038	84.662941	336.09786	11.358126	10.689450	9.0234572
17.7100	17.7150	8	3	714.82983	84.570517	334.24141	11.181806	10.662002	8.9694346
17.7150	17.7200	10	0	714.03928	84.478093	332.38496	11.005486	10.634554	8.9154119
17.7200	17.7250	6	1	713.29270	84.390758	330.92247	10.850318	10.623867	8.8603275
17.7250	17.7300	5	0	712.56328	84.305409	329.61304	10.703379	10.619684	8.8048391
17.7300	17.7350	8	1	711.84256	84.221048	328.20651	10.562725	10.599121	8.7590559
17.7350	17.7400	11	2	711.15160	84.140060	326.45548	10.444059	10.520738	8.7474522
17.7400	17.7450	11	3	710.46037	84.059041	324.70379	10.325348	10.442324	8.7358440
17.7450	17.7500	11	1	709.79306	83.980763	323.46102	10.223341	10.376436	8.7571526
17.7500	17.7550	10	2	709.13493	83.903534	322.41508	10.127786	10.315387	8.7912072
17.7550	17.7600	15	0	708.48368	83.827099	321.33714	10.036641	10.252484	8.8272741
17.7600	17.7650	6	1	707.85764	83.753569	320.14764	9.9611897	10.183124	8.8703973
17.7650	17.7700	16	4	707.23184	83.680068	318.95859	9.8857675	10.113790	8.9135040
17.7700	17.7750	8	1	706.54500	83.599609	317.59088	9.7728380	10.001316	8.9159101
17.7750	17.7800	21	0	705.83423	83.516422	316.15338	9.6453242	9.8720739	8.9025378
17.7800	17.7850	13	3	705.10086	83.430659	314.59069	9.5054397	9.7303009	8.8843081
17.7850	17.7900	5	2	704.28804	83.335839	312.58699	9.3219713	9.5443802	8.8489509
17.7900	17.7950	13	2	703.47521	83.241019	310.58329	9.1385028	9.3584594	8.8135937
17.7950	17.8000	9	0	702.66687	83.146719	308.20659	8.9631463	9.1806809	8.6972362
17.8000	17.8050	12	1	701.86069	83.052671	305.68649	8.7910285	9.0061542	8.5495276
17.8050	17.8100	13	0	701.05026	82.958140	303.23687	8.6177177	8.8304098	8.4019131
17.8100	17.8150	5	1	700.22450	82.861870	301.03549	8.4401232	8.6502933	8.2545751
17.8150	17.8200	6	1	699.39874	82.765599	298.83410	8.2625286	8.4701768	8.1072371
17.8200	17.8250	7	1	698.64120	82.677124	297.05649	8.1222309	8.3278566	7.9769766
17.8250	17.8300	4	1	697.90994	82.591654	295.44266	7.9963504	8.2001466	7.8533077
17.8300	17.8350	2	0	697.20042	82.508664	293.90814	7.8820628	8.0841819	7.7410202
17.8350	17.8400	10	1	696.56886	82.434572	292.65627	7.8089088	8.0098918	7.6691163
17.8400	17.8450	5	1	695.93730	82.360481	291.40441	7.7357549	7.9356017	7.5972123
17.8450	17.8500	6	1	695.39130	82.296144	290.66983	7.7051595	7.9044511	7.5669900
17.8500	17.8550	5	1	694.87859	82.235603	290.13615	7.6910890	7.8900508	7.5529521
17.8550	17.8600	3	2	694.39044	82.177866	289.75331	7.6894886	7.8883010	7.5511616
17.8600	17.8650	5	0	693.98841	82.129962	289.90291	7.7319462	7.9312458	7.5926415
17.8650	17.8700	6	1	693.58624	82.082039	290.05257	7.7744200	7.9742071	7.6341373
17.8700	17.8750	4	1	693.18287	82.033919	290.61571	7.8203785	8.0206740	7.6790232
17.8750	17.8800	5	0	692.77899	81.985716	291.33926	7.8676951	8.0685072	7.7252304
17.8800	17.8850	2	0	692.33585	81.933109	291.58631	7.8870941	8.0880424	7.7440686
17.8850	17.8900	1	0	691.75446	81.864991	290.14735	7.8077058	8.0074442	7.6660610
17.8900	17.8950	4	1	691.17329	81.796900	288.70895	7.7283478	7.9268766	7.5880831
17.8950	17.9000	0	0	690.51053	81.719503	287.09196	7.6109700	7.8077323	7.4728243
17.9000	17.9050	4	2	689.81584	81.638464	285.40504	7.4787882	7.6735671	7.3430490
17.9050	17.9100	4	3	689.15604	81.561412	283.80206	7.3633179	7.5563474	7.2296666
17.9100	17.9150	5	2	688.61966	81.498468	282.49603	7.3068839	7.4989906	7.1741943
17.9150	17.9200	2	1	688.08328	81.435524	281.19000	7.2504499	7.4416338	7.1187221
17.9200	17.9250	1	0	687.76907	81.398001	281.17524	7.2904187	7.4821017	7.1578134
17.9250	17.9300	4	0	687.54123	81.370359	281.66140	7.3677634	7.5604970	7.2335676
17.9300	17.9350	4	0	687.33448	81.344956	282.64158	7.4753080	7.6694968	7.3389258
17.9350	17.9400	8	1	687.20238	81.327470	285.37122	7.6898154	7.8868923	7.5491357
17.9400	17.9450	3	1	687.07029	81.309984	288.10085	7.9043227	8.1042878	7.7593456
17.9450	17.9500	5	2	686.64286	81.258187	289.36518	8.0488014	8.2506065	7.9008942
17.9500	17.9550	6	0	686.10095	81.193090	290.06198	8.1661693	8.3694088	8.0158613
17.9550	17.9600	4	1	685.50532	81.122013	290.32557	8.2373168	8.4413803	8.0855054
17.9600	17.9650	2	2	684.72080	81.029924	289.05723	8.1449408	8.3476700	7.9948014
17.9650	17.9700	5	0	683.93628	80.937834	287.78888	8.0525648	8.2539597	7.9040974
17.9700	17.9750	3	0	683.22177	80.854525	285.40412	7.9070763	8.1063806	7.7613004
17.9750	17.9800	4	1	682.53457	80.774641	282.58568	7.7409611	7.9378812	7.5982725
17.9800	17.9850	10	1	681.87315	80.697576	280.19910	7.6017963	7.7967008	7.4616823
17.9850	17.9900	4	0	681.30196	80.630378	279.33675	7.5577681	7.7519582	7.4184187
17.9900	17.9950	6	1	680.73056	80.563154	278.47407	7.5137230	7.7071986	7.3751385
17.9950	18.0000	5	0	680.31319	80.512575	279.70028	7.6529019	7.8481329	7.5114711
