# do not edit -- automatically generated Thu Aug 22 13:40:06 2019 from /susfu/kashyap/solar/ISSI/Capella_O7/binned_11t18.pro
# 
# events in wavelength region [11.00,18.00] Ang
# 
# BACKSCAL = 15.6250
#columns are:
#WLOW: wavelength grid bin lower bound [Angstrom]
#WHIGH: wavelength grid bin upper bound [Angstrom]
#SRCCT: counts in bin [ct]
#BKGCT: background counts in bin [ct]
#EA{p|n}_OBSID: effective area for each ObsID [cm^2 ksec]
WLOW	WHIGH	SRCCT	BKGCT	EAp_00055	EAp_08319	EAp_18358	EAp_18360	EAp_18362
N	N	N	N	N	N	N	N	N
11.0000	11.0050	106	7	2115.5532	1849.7908	181.76865	182.92794	181.10263
11.0050	11.0100	73	10	2114.2925	1848.1911	181.50637	182.65159	180.80956
11.0100	11.0150	93	7	2113.0165	1846.6374	181.24309	182.37580	180.52836
11.0150	11.0200	91	7	2111.7410	1845.0844	180.97991	182.10012	180.24727
11.0200	11.0250	84	7	2110.4676	1843.5477	180.71970	181.82426	179.98226
11.0250	11.0300	80	7	2109.1953	1842.0174	180.46067	181.54835	179.72348
11.0300	11.0350	68	7	2107.9239	1840.4838	180.19949	181.27601	179.46622
11.0350	11.0400	60	6	2106.6548	1838.9371	179.93050	181.01592	179.21402
11.0400	11.0450	59	5	2105.3861	1837.3911	179.66162	180.75593	178.96192
11.0450	11.0500	30	3	2104.1198	1835.8331	179.39636	180.48638	178.70383
11.0500	11.0550	38	1	2102.8550	1834.2713	179.13263	180.21328	178.44357
11.0550	11.0600	40	5	2101.5903	1832.6963	178.86647	179.94103	178.18086
11.0600	11.0650	39	4	2100.3283	1831.0779	178.59217	179.67223	177.91000
11.0650	11.0700	37	4	2099.0663	1829.4594	178.31787	179.40343	177.63915
11.0700	11.0750	33	5	2097.7643	1827.8169	178.05513	179.13498	177.37366
11.0750	11.0800	28	9	2096.4476	1826.1661	177.79700	178.86682	177.11040
11.0800	11.0850	34	3	2095.2564	1824.6229	177.55150	178.60514	176.85465
11.0850	11.0900	37	4	2094.5084	1823.4610	177.35086	178.36671	176.62579
11.0900	11.0950	46	5	2093.7601	1822.2987	177.15015	178.12819	176.39684
11.0950	11.1000	41	5	2093.0295	1821.1834	176.93198	177.89973	176.18156
11.1000	11.1050	42	10	2092.3054	1820.0859	176.70699	177.67507	175.97149
11.1050	11.1100	63	5	2091.5873	1818.9898	176.48556	177.45273	175.76320
11.1100	11.1150	68	5	2090.8900	1817.8992	176.27668	177.23858	175.56119
11.1150	11.1200	71	3	2090.1925	1816.8081	176.06773	177.02434	175.35911
11.1200	11.1250	63	8	2089.4965	1815.7025	175.85081	176.80993	175.14135
11.1250	11.1300	86	8	2088.8007	1814.5907	175.63071	176.59532	174.91742
11.1300	11.1350	78	9	2088.1056	1813.4795	175.40878	176.37991	174.69333
11.1350	11.1400	79	8	2087.4113	1812.3681	175.18002	176.16127	174.46826
11.1400	11.1450	78	7	2086.7174	1811.2572	174.95135	175.94272	174.24328
11.1450	11.1500	61	3	2086.0249	1810.1105	174.72890	175.73325	174.01496
11.1500	11.1550	60	8	2085.3331	1808.9501	174.50888	175.52732	173.78538
11.1550	11.1600	40	6	2084.6418	1807.8063	174.28786	175.32035	173.55550
11.1600	11.1650	64	6	2083.9519	1806.7198	174.06312	175.10951	173.32437
11.1650	11.1700	46	7	2083.2621	1805.6336	173.83846	174.89875	173.09333
11.1700	11.1750	57	11	2082.5735	1804.5295	173.62071	174.68456	172.86186
11.1750	11.1800	51	6	2081.8857	1803.4190	173.40575	174.46916	172.63034
11.1800	11.1850	39	7	2081.1979	1802.3084	173.19021	174.25477	172.40090
11.1850	11.1900	49	9	2080.5116	1801.1996	172.97301	174.04433	172.17916
11.1900	11.1950	48	7	2079.8253	1800.0908	172.75580	173.83389	171.95741
11.1950	11.2000	51	5	2079.1242	1799.0019	172.53078	173.61974	171.74100
11.2000	11.2050	42	7	2078.4179	1797.9213	172.30284	173.40426	171.52676
11.2050	11.2100	37	1	2077.7065	1796.8336	172.07722	173.18584	171.31376
11.2100	11.2150	43	5	2076.9787	1795.7229	171.86015	172.95741	171.10548
11.2150	11.2200	40	6	2076.2506	1794.6119	171.64300	172.72890	170.89711
11.2200	11.2250	42	4	2075.5761	1793.5432	171.43361	172.51326	170.68609
11.2250	11.2300	61	7	2074.9220	1792.4906	171.22715	172.30254	170.47397
11.2300	11.2350	76	9	2074.2783	1791.4364	171.02303	172.09104	170.26507
11.2350	11.2400	90	7	2073.6715	1790.3769	170.82721	171.87681	170.06755
11.2400	11.2450	91	7	2073.0644	1789.3170	170.63132	171.66251	169.86995
11.2450	11.2500	92	8	2072.4597	1788.2828	170.41602	171.45033	169.66311
11.2500	11.2550	94	11	2071.8556	1787.2580	170.19309	171.23887	169.45258
11.2550	11.2600	104	12	2071.2521	1786.2432	169.97593	171.02765	169.24232
11.2600	11.2650	80	8	2070.6493	1785.2622	169.77868	170.81692	169.03266
11.2650	11.2700	72	8	2070.0468	1784.2816	169.58151	170.60627	168.82307
11.2700	11.2750	61	5	2069.5013	1783.4932	169.38894	170.41014	168.62522
11.2750	11.2800	52	8	2068.9779	1782.7793	169.19817	170.21966	168.43194
11.2800	11.2850	71	9	2068.4592	1782.0474	169.00982	170.03124	168.23950
11.2850	11.2900	68	8	2067.9567	1781.2511	168.82980	169.84989	168.04982
11.2900	11.2950	73	12	2067.4544	1780.4551	168.64986	169.66862	167.86022
11.2950	11.3000	77	6	2066.9677	1779.5882	168.45947	169.48348	167.67711
11.3000	11.3050	74	8	2066.4873	1778.6943	168.26514	169.29694	167.49661
11.3050	11.3100	100	6	2066.0120	1777.7925	168.07422	169.11083	167.31762
11.3100	11.3150	67	12	2065.5552	1776.8648	167.89568	168.92661	167.14424
11.3150	11.3200	105	8	2065.0984	1775.9371	167.71714	168.74238	166.97086
11.3200	11.3250	111	12	2064.6406	1775.0638	167.53950	168.55532	166.78784
11.3250	11.3300	80	11	2064.1826	1774.2120	167.36229	168.36726	166.60117
11.3300	11.3350	81	4	2063.7256	1773.3738	167.18608	168.17905	166.41444
11.3350	11.3400	66	7	2063.2727	1772.5847	167.01369	167.99064	166.22779
11.3400	11.3450	59	6	2062.8197	1771.7954	166.84124	167.80216	166.04106
11.3450	11.3500	64	4	2062.3670	1770.9913	166.65710	167.61586	165.86810
11.3500	11.3550	49	7	2061.9144	1770.1812	166.46836	167.43034	165.70041
11.3550	11.3600	38	4	2061.4619	1769.3550	166.28094	167.24733	165.53798
11.3600	11.3650	44	5	2061.0101	1768.4720	166.09819	167.07319	165.39418
11.3650	11.3700	39	4	2060.5581	1767.5888	165.91537	166.89898	165.25033
11.3700	11.3750	38	5	2060.1052	1766.6700	165.73048	166.72698	165.07398
11.3750	11.3800	35	5	2059.6516	1765.7369	165.54468	166.55573	164.88495
11.3800	11.3850	34	3	2059.1916	1764.8156	165.36002	166.38065	164.69415
11.3850	11.3900	53	6	2058.7077	1763.9344	165.17905	166.19168	164.49682
11.3900	11.3950	45	11	2058.2241	1763.0536	164.99815	166.00278	164.29956
11.3950	11.4000	55	7	2057.7247	1762.1214	164.81048	165.82004	164.11098
11.4000	11.4050	72	9	2057.2193	1761.1692	164.62021	165.63970	163.92578
11.4050	11.4100	83	10	2056.7098	1760.2023	164.42991	165.46225	163.74184
11.4100	11.4150	76	9	2056.1854	1759.1819	164.23934	165.29487	163.56217
11.4150	11.4200	95	5	2055.6612	1758.1619	164.04884	165.12756	163.38258
11.4200	11.4250	111	16	2055.0989	1757.1832	163.86569	164.96128	163.20876
11.4250	11.4300	107	10	2054.5221	1756.2211	163.68550	164.79548	163.03727
11.4300	11.4350	104	13	2053.9523	1755.2508	163.50361	164.62734	162.86682
11.4350	11.4400	92	12	2053.4086	1754.2536	163.31603	164.45119	162.70035
11.4400	11.4450	94	11	2052.8648	1753.2564	163.12846	164.27504	162.53388
11.4450	11.4500	89	8	2052.3230	1752.4087	162.95317	164.09417	162.36073
11.4500	11.4550	93	5	2051.7821	1751.6196	162.78273	163.91156	162.18508
11.4550	11.4600	69	5	2051.2442	1750.8594	162.61101	163.73108	162.01004
11.4600	11.4650	60	6	2050.7172	1750.2032	162.43505	163.55842	161.83750
11.4650	11.4700	56	4	2050.1900	1749.5467	162.25902	163.38569	161.66488
11.4700	11.4750	59	7	2049.6797	1748.9145	162.07851	163.20585	161.47926
11.4750	11.4800	74	8	2049.1757	1748.2914	161.89618	163.02320	161.28852
11.4800	11.4850	66	4	2048.6569	1747.6435	161.71556	162.84251	161.09925
11.4850	11.4900	57	8	2048.0859	1746.9081	161.54101	162.66882	160.91518
11.4900	11.4950	72	5	2047.5145	1746.1723	161.36638	162.49506	160.73104
11.4950	11.5000	81	9	2047.0023	1745.3661	161.18921	162.32558	160.55329
11.5000	11.5050	78	10	2046.5128	1744.5320	161.01096	162.15766	160.37793
11.5050	11.5100	93	4	2046.0418	1743.7045	160.83535	161.99035	160.20507
11.5100	11.5150	102	14	2045.6354	1742.8990	160.66882	161.82486	160.04078
11.5150	11.5200	102	17	2045.2292	1742.0938	160.50236	161.65943	159.87656
11.5200	11.5250	103	13	2044.8266	1741.2702	160.33248	161.49693	159.71875
11.5250	11.5300	139	13	2044.4255	1740.4396	160.16129	161.33559	159.56344
11.5300	11.5350	137	14	2044.0262	1739.6307	159.99281	161.17399	159.40763
11.5350	11.5400	143	18	2043.6326	1738.8980	159.83378	161.01126	159.24988
11.5400	11.5450	111	9	2043.2392	1738.1656	159.67481	160.84860	159.09220
11.5450	11.5500	111	5	2042.8426	1737.5209	159.51909	160.68984	158.93571
11.5500	11.5550	95	8	2042.4450	1736.9106	159.36472	160.53268	158.77977
11.5550	11.5600	101	10	2042.0489	1736.3059	159.20856	160.37200	158.62491
11.5600	11.5650	75	10	2041.6590	1735.7224	159.04633	160.19912	158.47416
11.5650	11.5700	64	5	2041.2691	1735.1388	158.88410	160.02624	158.32341
11.5700	11.5750	55	2	2040.8839	1734.5731	158.72451	159.85808	158.16404
11.5750	11.5800	52	4	2040.5008	1734.0147	158.56603	159.69184	158.00140
11.5800	11.5850	32	5	2040.1158	1733.4354	158.40705	159.52858	157.83771
11.5850	11.5900	43	7	2039.7250	1732.7830	158.24658	159.37617	157.67055
11.5900	11.5950	44	1	2039.3341	1732.1303	158.08605	159.22371	157.50333
11.5950	11.6000	35	9	2038.9729	1731.4840	157.94100	159.07473	157.33899
11.6000	11.6050	39	4	2038.6232	1730.8400	157.80192	158.92706	157.17571
11.6050	11.6100	32	8	2038.2775	1730.1934	157.65807	158.77806	157.01384
11.6100	11.6150	32	2	2037.9464	1729.5377	157.49733	158.62436	156.85693
11.6150	11.6200	31	3	2037.6152	1728.8818	157.33652	158.47060	156.69997
11.6200	11.6250	37	6	2037.2846	1728.2242	157.17334	158.31777	156.54775
11.6250	11.6300	24	5	2036.9539	1727.5656	157.00914	158.16521	156.39729
11.6300	11.6350	43	2	2036.6258	1726.9136	156.84892	158.01319	156.24565
11.6350	11.6400	38	5	2036.3060	1726.2843	156.70254	157.86280	156.08953
11.6400	11.6450	44	7	2035.9864	1725.6552	156.55622	157.71247	155.93346
11.6450	11.6500	36	4	2035.6579	1725.0227	156.39860	157.55918	155.77916
11.6500	11.6550	42	2	2035.3261	1724.3889	156.23660	157.40476	155.62555
11.6550	11.6600	52	5	2034.9974	1723.7548	156.07737	157.24950	155.47299
11.6600	11.6650	34	8	2034.6799	1723.1185	155.92780	157.09115	155.32403
11.6650	11.6700	30	10	2034.3625	1722.4824	155.77830	156.93286	155.17513
11.6700	11.6750	27	5	2034.0401	1721.8299	155.62552	156.77833	155.02122
11.6750	11.6800	32	5	2033.7159	1721.1712	155.47156	156.62535	154.86544
11.6800	11.6850	28	7	2033.3815	1720.4906	155.31886	156.47192	154.70682
11.6850	11.6900	32	4	2033.0116	1719.7332	155.17093	156.31718	154.53844
11.6900	11.6950	33	5	2032.6417	1718.9758	155.02299	156.16244	154.37006
11.6950	11.7000	48	7	2032.2501	1718.1894	154.86830	156.00610	154.19745
11.7000	11.7050	45	5	2031.8502	1717.3921	154.71106	155.84921	154.02327
11.7050	11.7100	46	5	2031.4483	1716.5886	154.55004	155.68982	153.84826
11.7100	11.7150	57	6	2031.0399	1715.7644	154.37588	155.52185	153.67060
11.7150	11.7200	57	5	2030.6313	1714.9399	154.20164	155.35382	153.49287
11.7200	11.7250	87	8	2030.2226	1714.1197	154.03441	155.17868	153.31983
11.7250	11.7300	78	8	2029.8137	1713.3009	153.86984	155.00072	153.14857
11.7300	11.7350	70	13	2029.4062	1712.4709	153.70205	154.82421	152.97725
11.7350	11.7400	100	7	2029.0034	1711.6012	153.52290	154.65284	152.80572
11.7400	11.7450	94	2	2028.6004	1710.7312	153.34368	154.48141	152.63414
11.7450	11.7500	100	6	2028.1921	1709.8495	153.17712	154.31107	152.46662
11.7500	11.7550	102	10	2027.7814	1708.9628	153.01540	154.14106	152.30061
11.7550	11.7600	128	10	2027.3730	1708.0863	152.85369	153.97187	152.13344
11.7600	11.7650	128	13	2026.9725	1707.2447	152.69171	153.80529	151.96189
11.7650	11.7700	114	8	2026.5720	1706.4034	152.52979	153.63877	151.79041
11.7700	11.7750	104	9	2026.1681	1705.6018	152.36674	153.46499	151.62665
11.7750	11.7800	87	12	2025.7629	1704.8159	152.20327	153.28841	151.46591
11.7800	11.7850	88	5	2025.3585	1704.0426	152.03960	153.11134	151.30363
11.7850	11.7900	74	9	2024.9565	1703.3135	151.87507	152.93235	151.13571
11.7900	11.7950	74	5	2024.5547	1702.5847	151.71061	152.75344	150.96785
11.7950	11.8000	42	6	2024.1307	1701.8600	151.54902	152.58286	150.80311
11.8000	11.8050	58	7	2023.6983	1701.1373	151.38864	152.41563	150.63967
11.8050	11.8100	54	10	2023.2597	1700.3882	151.22782	152.24811	150.47404
11.8100	11.8150	67	4	2022.7996	1699.5467	151.06570	152.07981	150.30087
11.8150	11.8200	52	3	2022.3396	1698.7053	150.90358	151.91152	150.12771
11.8200	11.8250	50	6	2021.8841	1697.7965	150.73144	151.74052	149.95632
11.8250	11.8300	60	7	2021.4308	1696.8620	150.55549	151.56856	149.78572
11.8300	11.8350	58	6	2020.9758	1695.9296	150.38051	151.40129	149.61529
11.8350	11.8400	52	5	2020.5159	1695.0060	150.20924	151.25103	149.44582
11.8400	11.8450	47	4	2020.0558	1694.0822	150.03791	151.10070	149.27628
11.8450	11.8500	51	3	2019.5982	1693.2904	149.87183	150.93608	149.10442
11.8500	11.8550	54	7	2019.1413	1692.5498	149.70774	150.76582	148.93160
11.8550	11.8600	60	6	2018.7171	1691.8403	149.54392	150.59581	148.75885
11.8600	11.8650	41	4	2018.4094	1691.2411	149.38103	150.42673	148.58640
11.8650	11.8700	47	7	2018.1016	1690.6417	149.21809	150.25759	148.41388
11.8700	11.8750	37	9	2017.7242	1689.9802	149.05341	150.08726	148.24319
11.8750	11.8800	52	9	2017.3194	1689.2940	148.88798	149.91638	148.07313
11.8800	11.8850	37	5	2016.9167	1688.6042	148.72150	149.74595	147.90491
11.8850	11.8900	38	5	2016.5208	1687.9002	148.55100	149.57679	147.74296
11.8900	11.8950	44	6	2016.1251	1687.1963	148.38056	149.40770	147.58107
11.8950	11.9000	41	6	2015.7076	1686.4813	148.20945	149.24027	147.41110
11.9000	11.9050	42	7	2015.2816	1685.7618	148.03809	149.07349	147.23798
11.9050	11.9100	52	4	2014.8497	1685.0366	147.86943	148.90696	147.06490
11.9100	11.9150	38	6	2014.3966	1684.2900	147.71021	148.74115	146.89178
11.9150	11.9200	43	5	2013.9438	1683.5437	147.55104	148.57540	146.71872
11.9200	11.9250	48	4	2013.4532	1682.7272	147.38748	148.40822	146.54098
11.9250	11.9300	66	2	2012.9482	1681.8837	147.22228	148.24058	146.36149
11.9300	11.9350	50	6	2012.4395	1681.0280	147.05701	148.07139	146.18204
11.9350	11.9400	69	6	2011.9185	1680.1303	146.89180	147.89703	146.00302
11.9400	11.9450	56	4	2011.3975	1679.2326	146.72659	147.72267	145.82400
11.9450	11.9500	61	4	2010.8793	1678.3936	146.55738	147.55641	145.65898
11.9500	11.9550	50	5	2010.3624	1677.5779	146.38670	147.39341	145.49951
11.9550	11.9600	43	6	2009.8461	1676.7669	146.21819	147.22864	145.34331
11.9600	11.9650	57	7	2009.3325	1675.9741	146.05775	147.05788	145.19901
11.9650	11.9700	54	9	2008.8188	1675.1809	145.89724	146.88705	145.05465
11.9700	11.9750	61	9	2008.3042	1674.4396	145.73407	146.71783	144.91508
11.9750	11.9800	54	4	2007.7891	1673.7181	145.56980	146.54919	144.77733
11.9800	11.9850	46	8	2007.2742	1673.0023	145.40576	146.37874	144.63576
11.9850	11.9900	36	3	2006.7598	1672.3069	145.24261	146.20186	144.48058
11.9900	11.9950	43	4	2006.2452	1671.6111	145.07940	146.02492	144.32534
11.9950	12.0000	43	3	2005.7632	1670.8618	144.90257	145.85504	144.15602
12.0000	12.0050	40	7	2005.2937	1670.0913	144.72034	145.68784	143.98111
12.0050	12.0100	35	5	2004.8351	1669.3101	144.54279	145.52229	143.80615
12.0100	12.0150	42	7	2004.4145	1668.4899	144.38166	145.36234	143.63071
12.0150	12.0200	33	4	2003.9940	1667.6699	144.22060	145.20246	143.45534
12.0200	12.0250	46	5	2003.5797	1666.7937	144.05450	145.03829	143.27422
12.0250	12.0300	48	4	2003.1680	1665.8955	143.88645	144.87244	143.09087
12.0300	12.0350	42	5	2002.7544	1665.0066	143.71907	144.70972	142.90975
12.0350	12.0400	53	7	2002.3340	1664.1495	143.55391	144.55796	142.73641
12.0400	12.0450	53	8	2001.9138	1663.2928	143.38881	144.40625	142.56312
12.0450	12.0500	68	9	2001.4969	1662.4274	143.22650	144.25315	142.39795
12.0500	12.0550	52	10	2001.0817	1661.5589	143.06538	144.09957	142.23605
12.0550	12.0600	47	11	2000.6668	1660.6972	142.90238	143.94468	142.07394
12.0600	12.0650	72	6	2000.2539	1659.8601	142.73276	143.78521	141.91122
12.0650	12.0700	76	8	1999.8411	1659.0233	142.56317	143.62576	141.74852
12.0700	12.0750	90	6	1999.4230	1658.1833	142.39942	143.46373	141.59110
12.0750	12.0800	97	12	1999.0030	1657.3427	142.23804	143.30078	141.43583
12.0800	12.0850	98	10	1998.5847	1656.4749	142.07681	143.13543	141.28172
12.0850	12.0900	138	18	1998.1731	1655.5117	141.91639	142.96184	141.13201
12.0900	12.0950	190	15	1997.7613	1654.5482	141.75591	142.78818	140.98225
12.0950	12.1000	194	21	1997.3095	1653.5584	141.59714	142.61892	140.83211
12.1000	12.1050	267	18	1996.8418	1652.5580	141.43900	142.45132	140.68176
12.1050	12.1100	345	23	1996.3634	1651.5545	141.27963	142.28558	140.53305
12.1100	12.1150	403	29	1995.8468	1650.5397	141.11596	142.12651	140.39015
12.1150	12.1200	502	44	1995.3300	1649.5245	140.95222	141.96739	140.24720
12.1200	12.1250	512	35	1994.8181	1648.5678	140.79634	141.81098	140.10399
12.1250	12.1300	543	36	1994.3077	1647.6334	140.64345	141.65555	139.96060
12.1300	12.1350	577	44	1993.8282	1646.7571	140.49213	141.50249	139.81883
12.1350	12.1400	528	30	1993.4579	1646.0865	140.34611	141.35764	139.68258
12.1400	12.1450	490	23	1993.0877	1645.4162	140.20014	141.21284	139.54638
12.1450	12.1500	386	34	1992.7228	1644.8239	140.05623	141.07627	139.41148
12.1500	12.1550	294	29	1992.3599	1644.2622	139.91313	140.94292	139.27711
12.1550	12.1600	254	28	1991.9969	1643.7510	139.76818	140.81048	139.14306
12.1600	12.1650	196	23	1991.6331	1643.4199	139.61646	140.68112	139.01007
12.1650	12.1700	151	8	1991.2695	1643.0889	139.46481	140.55182	138.87713
12.1700	12.1750	106	12	1990.9052	1642.7034	139.32442	140.42381	138.73937
12.1750	12.1800	104	14	1990.5408	1642.2968	139.18853	140.29637	138.59979
12.1800	12.1850	105	5	1990.1777	1641.8632	139.05139	140.16789	138.45979
12.1850	12.1900	76	14	1989.8192	1641.3335	138.90988	140.03575	138.31835
12.1900	12.1950	89	6	1989.4608	1640.8040	138.76840	139.90364	138.17694
12.1950	12.2000	87	10	1989.1241	1640.2851	138.62687	139.76162	138.03472
12.2000	12.2050	78	12	1988.7962	1639.7707	138.48540	139.61578	137.89227
12.2050	12.2100	78	5	1988.4719	1639.2282	138.34340	139.47206	137.74866
12.2100	12.2150	76	8	1988.1613	1638.5865	138.19980	139.33615	137.60116
12.2150	12.2200	67	12	1987.8506	1637.9445	138.05614	139.20019	137.45361
12.2200	12.2250	96	8	1987.5429	1637.2843	137.91524	139.06591	137.30725
12.2250	12.2300	90	11	1987.2363	1636.6167	137.77536	138.93226	137.16131
12.2300	12.2350	101	10	1986.9295	1635.9321	137.63387	138.79723	137.01527
12.2350	12.2400	104	19	1986.6218	1635.1866	137.48664	138.65727	136.86892
12.2400	12.2450	171	18	1986.3140	1634.4408	137.33935	138.51727	136.72252
12.2450	12.2500	194	15	1985.9951	1633.6543	137.19625	138.37152	136.57224
12.2500	12.2550	202	18	1985.6715	1632.8514	137.05472	138.22344	136.42035
12.2550	12.2600	228	21	1985.3463	1632.0574	136.90984	138.07722	136.26829
12.2600	12.2650	236	19	1985.0144	1631.2939	136.75273	137.93736	136.11538
12.2650	12.2700	259	23	1984.6826	1630.5306	136.59568	137.79756	135.96253
12.2700	12.2750	270	24	1984.3300	1629.7802	136.44612	137.65261	135.80033
12.2750	12.2800	268	31	1983.9693	1629.0348	136.29952	137.50564	135.63448
12.2800	12.2850	278	18	1983.6036	1628.2965	136.15246	137.35970	135.47413
12.2850	12.2900	203	26	1983.2191	1627.5822	136.00361	137.21725	135.33335
12.2900	12.2950	222	5	1982.8349	1626.8683	135.85482	137.07485	135.19262
12.2950	12.3000	178	12	1982.4278	1626.1626	135.71916	136.93728	135.06504
12.3000	12.3050	143	16	1982.0119	1625.4606	135.58872	136.80168	134.94268
12.3050	12.3100	112	11	1981.5851	1624.7776	135.45792	136.66490	134.81920
12.3100	12.3150	83	13	1981.1195	1624.1631	135.32594	136.52404	134.69180
12.3150	12.3200	86	3	1980.6540	1623.5488	135.19398	136.38321	134.56443
12.3200	12.3250	84	7	1980.2423	1622.9964	135.06728	136.23771	134.42929
12.3250	12.3300	67	6	1979.8519	1622.4686	134.94272	136.09045	134.29117
12.3300	12.3350	69	10	1979.4694	1621.9243	134.81739	135.94512	134.15577
12.3350	12.3400	59	9	1979.1156	1621.3219	134.68956	135.80693	134.03035
12.3400	12.3450	51	7	1978.7617	1620.7193	134.56167	135.66868	133.90488
12.3450	12.3500	56	8	1978.4188	1620.0970	134.44012	135.53414	133.77735
12.3500	12.3550	52	6	1978.0800	1619.4666	134.32102	135.40100	133.64896
12.3550	12.3600	57	7	1977.7429	1618.8320	134.20105	135.26814	133.52193
12.3600	12.3650	49	11	1977.4117	1618.1823	134.07798	135.13630	133.39977
12.3650	12.3700	54	7	1977.0803	1617.5323	133.95486	135.00442	133.27757
12.3700	12.3750	63	5	1976.7484	1616.9324	133.82961	134.87381	133.15486
12.3750	12.3800	63	11	1976.4162	1616.3519	133.70347	134.74363	133.03189
12.3800	12.3850	87	8	1976.0841	1615.7737	133.57743	134.61531	132.90761
12.3850	12.3900	103	9	1975.7522	1615.2032	133.45150	134.49347	132.77840
12.3900	12.3950	117	10	1975.4204	1614.6330	133.32562	134.37167	132.64925
12.3950	12.4000	119	12	1975.1751	1614.0690	133.20621	134.25312	132.51734
12.4000	12.4050	99	9	1974.9637	1613.5075	133.08935	134.13586	132.38435
12.4050	12.4100	115	6	1974.7702	1612.9645	132.97037	134.01671	132.25073
12.4100	12.4150	154	7	1974.6405	1612.4876	132.84371	133.89065	132.11465
12.4150	12.4200	135	17	1974.5109	1612.0108	132.71710	133.76464	131.97862
12.4200	12.4250	149	15	1974.3795	1611.5061	132.58689	133.64038	131.84177
12.4250	12.4300	162	7	1974.2475	1610.9906	132.45533	133.51687	131.70466
12.4300	12.4350	143	13	1974.1134	1610.4819	132.32014	133.38989	131.56415
12.4350	12.4400	145	10	1973.9720	1609.9981	132.17195	133.25052	131.41153
12.4400	12.4450	120	22	1973.8306	1609.5143	132.02379	133.11118	131.25893
12.4450	12.4500	107	11	1973.6876	1609.0009	131.87961	132.96951	131.10571
12.4500	12.4550	96	9	1973.5441	1608.4762	131.73706	132.82700	130.95233
12.4550	12.4600	85	14	1973.4016	1607.9234	131.59413	132.68208	130.79837
12.4600	12.4650	82	9	1973.2630	1607.2710	131.45003	132.52875	130.64262
12.4650	12.4700	93	6	1973.1243	1606.6184	131.30588	132.37537	130.48681
12.4700	12.4750	78	11	1972.9840	1606.0384	131.15489	132.22696	130.33545
12.4750	12.4800	72	6	1972.8429	1605.4868	131.00116	132.08045	130.18579
12.4800	12.4850	76	8	1972.7020	1604.9242	130.84855	131.93272	130.03617
12.4850	12.4900	60	9	1972.5621	1604.3225	130.70002	131.78064	129.88673
12.4900	12.4950	83	9	1972.4221	1603.7206	130.55142	131.62850	129.73723
12.4950	12.5000	70	12	1972.2721	1603.1434	130.40470	131.47876	129.59019
12.5000	12.5050	68	4	1972.1180	1602.5757	130.25865	131.32989	129.44403
12.5050	12.5100	71	7	1971.9605	1601.9956	130.11241	131.18047	129.30039
12.5100	12.5150	68	8	1971.7905	1601.3697	129.96522	131.02883	129.16557
12.5150	12.5200	72	7	1971.6206	1600.7440	129.81810	130.87725	129.03081
12.5200	12.5250	57	7	1971.4350	1600.2147	129.66973	130.72622	128.89271
12.5250	12.5300	73	6	1971.2433	1599.7234	129.52087	130.57541	128.75332
12.5300	12.5350	55	1	1971.0485	1599.2024	129.37397	130.42423	128.61310
12.5350	12.5400	74	6	1970.8420	1598.5740	129.23395	130.27155	128.46976
12.5400	12.5450	79	8	1970.6356	1597.9459	129.09397	130.11892	128.32647
12.5450	12.5500	72	5	1970.4291	1593.1281	128.95287	129.96639	128.17374
12.5500	12.5550	81	5	1970.2228	1586.6633	128.81141	129.81396	128.01737
12.5550	12.5600	79	7	1970.0164	1578.1754	128.67143	129.66458	127.86215
12.5600	12.5650	76	3	1969.8097	1562.4128	128.53691	129.52622	127.71117
12.5650	12.5700	75	3	1969.6030	1546.6532	128.40241	129.38789	127.56021
12.5700	12.5750	81	9	1969.3963	1527.8688	128.26480	129.24619	127.41355
12.5750	12.5800	94	11	1969.1898	1507.9029	128.12604	129.10325	127.26867
12.5800	12.5850	77	7	1968.9838	1486.2406	127.98706	128.95934	127.12130
12.5850	12.5900	67	8	1968.7807	1458.5140	127.84751	128.81223	126.96528
12.5900	12.5950	65	10	1968.5775	1430.7769	127.70792	128.66506	126.80921
12.5950	12.6000	59	8	1968.3574	1413.3122	127.57117	128.52951	126.66263
12.6000	12.6050	70	12	1968.1306	1399.8850	127.43549	128.39849	126.51974
12.6050	12.6100	65	5	1967.8992	1387.8340	127.30220	128.26740	126.37799
12.6100	12.6150	57	5	1967.6509	1380.7373	127.17755	128.13608	126.24037
12.6150	12.6200	55	10	1967.4025	1373.6379	127.05284	128.00471	126.10268
12.6200	12.6250	58	8	1967.1582	1379.5675	126.91702	127.86891	125.96171
12.6250	12.6300	78	6	1966.9153	1390.6307	126.77675	127.73130	125.81937
12.6300	12.6350	65	10	1966.6718	1401.9259	126.63625	127.59110	125.67883
12.6350	12.6400	68	11	1966.4256	1414.0764	126.49465	127.44135	125.54453
12.6400	12.6450	72	12	1966.1796	1426.2222	126.35311	127.29166	125.41028
12.6450	12.6500	96	5	1965.9375	1436.6041	126.21401	127.14300	125.27437
12.6500	12.6550	99	10	1965.6970	1446.2901	126.07588	126.99476	125.13780
12.6550	12.6600	79	6	1965.4595	1455.0494	125.93784	126.84740	125.00383
12.6600	12.6650	78	7	1965.2325	1460.4787	125.79999	126.70306	124.87906
12.6650	12.6700	76	8	1965.0055	1465.9059	125.66218	126.55877	124.75435
12.6700	12.6750	67	12	1964.7753	1468.8420	125.52154	126.41775	124.62888
12.6750	12.6800	71	5	1964.5439	1470.7946	125.37986	126.27809	124.50317
12.6800	12.6850	47	6	1964.3123	1473.0432	125.23569	126.13669	124.37674
12.6850	12.6900	59	8	1964.0799	1476.3574	125.08261	125.98912	124.24776
12.6900	12.6950	54	9	1963.8475	1479.6710	124.92955	125.84158	124.11880
12.6950	12.7000	63	12	1963.6416	1481.1991	124.77598	125.69596	123.97767
12.7000	12.7050	43	7	1963.4463	1482.0221	124.62228	125.55118	123.83183
12.7050	12.7100	42	3	1963.2376	1482.8729	124.46822	125.40506	123.68464
12.7100	12.7150	45	9	1962.9811	1483.8223	124.31315	125.25436	123.53288
12.7150	12.7200	43	4	1962.7245	1484.7720	124.15802	125.10360	123.38106
12.7200	12.7250	51	9	1962.4657	1486.3045	124.00377	124.95094	123.22852
12.7250	12.7300	36	7	1962.2059	1488.0672	123.84981	124.79749	123.07564
12.7300	12.7350	38	6	1961.9986	1489.3360	123.69622	124.64614	122.92516
12.7350	12.7400	58	5	1961.9806	1488.8234	123.54395	124.50242	122.78335
12.7400	12.7450	56	3	1961.9626	1488.3106	123.39163	124.35864	122.64148
12.7450	12.7500	63	6	1961.8032	1489.6161	123.23725	124.21588	122.49196
12.7500	12.7550	60	7	1961.5878	1491.6397	123.08199	124.07343	122.33934
12.7550	12.7600	66	6	1961.3731	1493.1095	122.92792	123.93221	122.18594
12.7600	12.7650	86	11	1961.1605	1492.5836	122.77792	123.79517	122.02943
12.7650	12.7700	73	3	1960.9479	1492.0580	122.62796	123.65818	121.87298
12.7700	12.7750	80	8	1960.7876	1492.0694	122.47671	123.51498	121.71530
12.7750	12.7800	83	11	1960.6479	1492.2929	122.32495	123.36933	121.55714
12.7800	12.7850	77	7	1960.5408	1492.4296	122.17643	123.22658	121.40121
12.7850	12.7900	90	6	1960.5512	1492.2530	122.03944	123.09409	121.25318
12.7900	12.7950	120	12	1960.5617	1492.0764	121.90250	122.96166	121.10521
12.7950	12.8000	120	5	1960.5347	1491.8606	121.76476	122.82698	120.95738
12.8000	12.8050	157	16	1960.4929	1491.6295	121.62679	122.69149	120.80969
12.8050	12.8100	181	14	1960.4383	1491.7113	121.48813	122.55674	120.66555
12.8100	12.8150	212	14	1960.3372	1492.9228	121.34712	122.42475	120.53432
12.8150	12.8200	241	22	1960.2361	1494.1341	121.20613	122.29278	120.40312
12.8200	12.8250	260	19	1960.1362	1493.3657	121.06556	122.15724	120.27713
12.8250	12.8300	254	31	1960.0370	1491.8156	120.92522	122.02035	120.15328
12.8300	12.8350	254	17	1959.9377	1490.7482	120.78427	121.88070	120.03099
12.8350	12.8400	246	15	1959.8388	1491.4257	120.64132	121.73132	119.91456
12.8400	12.8450	232	20	1959.7399	1492.1035	120.49831	121.58188	119.79809
12.8450	12.8500	189	18	1959.6395	1491.7873	120.35983	121.44052	119.67549
12.8500	12.8550	166	16	1959.5384	1491.0785	120.22307	121.30229	119.55043
12.8550	12.8600	170	16	1959.4380	1490.6471	120.08765	121.16469	119.42594
12.8600	12.8650	125	11	1959.3402	1491.2175	119.95706	121.02941	119.30353
12.8650	12.8700	127	8	1959.2425	1491.7882	119.82642	120.89409	119.18107
12.8700	12.8750	104	16	1959.1421	1491.7790	119.69666	120.75977	119.05384
12.8750	12.8800	80	4	1959.0408	1491.5406	119.56716	120.62579	118.92466
12.8800	12.8850	81	8	1958.9396	1491.0157	119.43504	120.49258	118.79436
12.8850	12.8900	85	12	1958.8388	1489.4542	119.29315	120.36192	118.65977
12.8900	12.8950	90	17	1958.7380	1487.8932	119.15133	120.23130	118.52523
12.8950	12.9000	91	8	1958.6344	1488.6288	119.02910	120.11129	118.39821
12.9000	12.9050	97	9	1958.5296	1490.2720	118.91464	119.99547	118.27418
12.9050	12.9100	107	9	1958.4207	1491.2283	118.79927	119.88043	118.15074
12.9100	12.9150	110	9	1958.2968	1489.7011	118.68053	119.76810	118.02930
12.9150	12.9200	94	9	1958.1730	1488.1744	118.56183	119.65581	117.90790
12.9200	12.9250	109	14	1958.0312	1487.9159	118.44961	119.54378	117.78755
12.9250	12.9300	107	15	1957.8825	1488.1590	118.34001	119.43192	117.66767
12.9300	12.9350	109	10	1957.7332	1488.3944	118.22695	119.31945	117.54815
12.9350	12.9400	116	9	1957.5818	1488.6022	118.10139	119.20486	117.42999
12.9400	12.9450	132	12	1957.4305	1488.8099	117.97586	119.09029	117.31185
12.9450	12.9500	117	9	1957.2772	1487.6615	117.85622	118.96360	117.18732
12.9500	12.9550	113	11	1957.1232	1485.9770	117.73897	118.83220	117.06033
12.9550	12.9600	108	7	1956.9700	1484.7990	117.61896	118.70247	116.93310
12.9600	12.9650	123	9	1956.8197	1485.4553	117.48915	118.57904	116.80527
12.9650	12.9700	101	7	1956.6694	1486.1118	117.35928	118.45557	116.67739
12.9700	12.9750	99	12	1956.5165	1485.1543	117.23196	118.33403	116.55246
12.9750	12.9800	93	13	1956.3625	1483.5581	117.10560	118.21322	116.42865
12.9800	12.9850	96	14	1956.2082	1482.5844	116.97997	118.09176	116.30643
12.9850	12.9900	85	8	1956.0528	1483.8633	116.85703	117.96801	116.18997
12.9900	12.9950	91	9	1955.8973	1485.1427	116.73404	117.84422	116.07348
12.9950	13.0000	75	16	1955.7939	1484.6562	116.60361	117.71881	115.95285
13.0000	13.0050	81	6	1955.7109	1483.4704	116.47016	117.59270	115.83051
13.0050	13.0100	76	11	1955.6413	1482.5499	116.33802	117.46561	115.70699
13.0100	13.0150	93	9	1955.6197	1482.5888	116.21041	117.33479	115.57900
13.0150	13.0200	97	12	1955.5980	1482.6278	116.08280	117.20398	115.45100
13.0200	13.0250	86	7	1955.5785	1482.8569	115.94620	117.07969	115.20545
13.0250	13.0300	89	9	1955.5597	1483.1613	115.80604	116.95797	114.91333
13.0300	13.0350	97	9	1955.5399	1482.6365	115.66770	116.83338	114.58522
13.0350	13.0400	99	9	1955.5164	1479.1053	115.53577	116.69820	114.12631
13.0400	13.0450	86	11	1955.4929	1475.5754	115.40390	116.56308	113.66758
13.0450	13.0500	86	7	1955.4796	1476.3413	115.27373	116.43583	112.40006
13.0500	13.0550	90	8	1955.4703	1478.8080	115.14431	116.31176	110.81290
13.0550	13.0600	85	9	1955.4654	1480.5888	115.01602	116.18810	109.35858
13.0600	13.0650	77	10	1955.4766	1479.8817	114.89195	116.06599	108.38684
13.0650	13.0700	104	9	1955.4878	1479.1745	114.76788	115.94387	107.41511
13.0700	13.0750	63	4	1955.4969	1478.0778	114.64889	115.76699	105.69353
13.0750	13.0800	77	11	1955.5052	1476.8271	114.53192	115.56845	103.67532
13.0800	13.0850	89	3	1955.5139	1475.8486	114.41320	115.33973	101.93475
13.0850	13.0900	73	11	1955.5237	1475.8589	114.28830	115.00204	101.20353
13.0900	13.0950	73	5	1955.5336	1475.8691	114.16335	114.66422	100.47202
13.0950	13.1000	67	13	1955.4921	1474.1355	114.04615	114.13595	99.806725
13.1000	13.1050	66	8	1955.4301	1471.7106	113.93197	113.53207	99.167429
13.1050	13.1100	75	6	1955.3541	1469.9335	113.81714	112.75529	98.811503
13.1100	13.1150	63	10	1955.2267	1470.5058	113.69996	111.35169	99.483234
13.1150	13.1200	75	7	1955.0993	1471.0783	113.58273	109.94755	100.15522
13.1200	13.1250	72	9	1954.9730	1470.0556	113.45668	108.88148	100.48758
13.1250	13.1300	90	7	1954.8472	1468.3998	113.32707	107.94887	100.68547
13.1300	13.1350	70	11	1954.7190	1466.9492	113.20113	106.90385	100.95288
13.1350	13.1400	81	3	1954.5823	1466.2402	113.08831	105.44944	101.47288
13.1400	13.1450	83	11	1954.4455	1465.5312	112.97549	103.99504	101.99288
13.1450	13.1500	95	7	1954.2762	1464.9502	112.85360	102.79113	102.48560
13.1500	13.1550	85	6	1954.0940	1464.4199	112.72811	101.68654	102.96751
13.1550	13.1600	84	9	1953.9066	1463.6752	112.60447	100.68695	103.31976
13.1600	13.1650	94	9	1953.7005	1462.1513	112.48744	100.06763	103.20159
13.1650	13.1700	63	4	1953.4944	1460.6281	112.37044	99.448541	103.08346
13.1700	13.1750	88	6	1953.2572	1460.9296	112.25185	99.606121	103.27886
13.1750	13.1800	59	5	1953.0078	1461.9549	112.13268	100.07174	103.59856
13.1800	13.1850	54	6	1952.7463	1462.2982	112.01338	100.53052	103.91658
13.1850	13.1900	59	7	1952.4413	1460.1639	111.89372	100.96417	104.22832
13.1900	13.1950	59	4	1952.1363	1458.0295	111.77406	101.39782	104.54007
13.1950	13.2000	45	6	1951.8321	1457.4533	111.65379	101.90321	104.47046
13.2000	13.2050	49	12	1951.5282	1457.4951	111.53331	102.43696	104.24959
13.2050	13.2100	47	5	1951.2368	1457.2766	111.41197	102.94294	104.11898
13.2100	13.2150	58	2	1950.9910	1456.1129	111.28772	103.34716	104.31636
13.2150	13.2200	58	8	1950.7451	1454.9487	111.16342	103.75154	104.51382
13.2200	13.2250	61	7	1950.5180	1454.4571	111.04309	104.09510	104.36994
13.2250	13.2300	59	5	1950.2984	1454.2322	110.92431	104.41465	104.09058
13.2300	13.2350	71	10	1950.0854	1453.7322	110.78846	104.72098	103.91299
13.2350	13.2400	75	9	1949.8971	1452.2330	110.59065	104.97925	104.10500
13.2400	13.2450	62	11	1949.7086	1450.7332	110.39277	105.23762	104.29708
13.2450	13.2500	74	6	1949.5091	1449.4668	109.96151	105.27296	104.37037
13.2500	13.2550	67	8	1949.3052	1448.2923	109.43737	105.21978	104.39654
13.2550	13.2600	72	8	1949.1045	1447.6490	108.93058	105.15517	104.38423
13.2600	13.2650	85	6	1948.9157	1448.9351	108.48603	105.04893	104.23206
13.2650	13.2700	66	8	1948.7269	1450.2212	108.04148	104.94269	104.07989
13.2700	13.2750	87	9	1948.5419	1448.5462	107.19400	104.95329	103.99889
13.2750	13.2800	66	6	1948.3585	1445.6947	106.18644	105.01030	103.94616
13.2800	13.2850	84	10	1948.1735	1443.3142	105.21878	104.99025	103.87278
13.2850	13.2900	81	9	1947.9827	1442.6456	104.39528	104.68970	103.72414
13.2900	13.2950	55	10	1947.7919	1441.9772	103.57209	104.38926	103.57555
13.2950	13.3000	91	4	1947.6486	1441.4026	102.92606	104.43042	103.55178
13.3000	13.3050	82	11	1947.5243	1440.8656	102.35076	104.60727	103.57760
13.3050	13.3100	94	8	1947.4264	1439.7683	101.61991	104.70225	103.59469
13.3100	13.3150	99	10	1947.4249	1436.6329	100.32344	104.49922	103.58000
13.3150	13.3200	87	12	1947.4233	1433.4975	99.026982	104.29618	103.56530
13.3200	13.3250	95	5	1947.4229	1432.6882	98.302627	104.25850	103.37927
13.3250	13.3300	94	6	1947.4230	1432.8031	97.805711	104.28651	103.12520
13.3300	13.3350	100	8	1947.4238	1432.3980	97.208588	104.30510	102.93867
13.3350	13.3400	102	14	1947.4269	1430.1017	96.248003	104.28936	102.99818
13.3400	13.3450	88	11	1947.4300	1427.8045	95.287052	104.27362	103.05770
13.3450	13.3500	80	9	1947.4294	1426.9939	95.611044	104.07569	102.97457
13.3500	13.3550	85	7	1947.4275	1426.7739	96.445784	103.80531	102.83471
13.3550	13.3600	105	15	1947.4208	1426.1417	97.090132	103.61780	102.71516
13.3600	13.3650	101	16	1947.3968	1424.0095	97.041446	103.73196	102.66953
13.3650	13.3700	96	11	1947.3728	1421.8764	96.992742	103.84615	102.62388
13.3700	13.3750	77	8	1947.3344	1418.1679	97.519061	103.77783	102.51455
13.3750	13.3800	117	11	1947.2902	1413.8308	98.274321	103.63690	102.37984
13.3800	13.3850	124	11	1947.2461	1410.3940	98.925689	103.51538	102.26751
13.3850	13.3900	103	9	1947.2020	1410.2312	99.199682	103.46437	102.23653
13.3900	13.3950	118	15	1947.1580	1410.0683	99.473674	103.41336	102.20555
13.3950	13.4000	125	12	1947.1028	1407.2068	99.419836	103.31048	102.11115
13.4000	13.4050	153	15	1947.0433	1403.2716	99.235574	103.18697	101.99151
13.4050	13.4100	146	17	1946.9776	1399.4481	99.174827	103.06448	101.85474
13.4100	13.4150	161	13	1946.8896	1396.0274	99.564300	102.94563	101.65536
13.4150	13.4200	160	11	1946.8016	1392.6080	99.953626	102.82683	101.45605
13.4200	13.4250	200	13	1946.7215	1387.7192	99.812136	102.74830	101.34396
13.4250	13.4300	232	15	1946.6445	1382.2483	99.459501	102.68583	101.26664
13.4300	13.4350	267	18	1946.5660	1375.4247	99.231984	102.59622	101.18371
13.4350	13.4400	297	22	1946.4823	1363.6746	99.460801	102.40774	101.08041
13.4400	13.4450	295	31	1946.3986	1351.9245	99.689619	102.21925	100.97710
13.4450	13.4500	321	29	1946.3143	1340.3327	99.793007	102.27552	100.88445
13.4500	13.4550	332	28	1946.2299	1328.8061	99.846457	102.42917	100.79606
13.4550	13.4600	325	31	1946.1475	1317.3205	99.894850	102.49303	100.70680
13.4600	13.4650	293	26	1946.0728	1306.0047	99.924725	102.22949	100.61456
13.4650	13.4700	294	23	1945.9980	1294.6846	99.954612	101.96586	100.52228
13.4700	13.4750	243	27	1945.9179	1296.1861	99.906803	101.78503	100.36812
13.4750	13.4800	257	18	1945.8358	1302.7904	99.828058	101.63710	100.18930
13.4800	13.4850	237	22	1945.7518	1310.2771	99.713303	101.55587	100.01651
13.4850	13.4900	279	21	1945.6611	1320.9804	99.467239	101.71791	99.865778
13.4900	13.4950	298	23	1945.5705	1331.6877	99.221082	101.88001	99.714988
13.4950	13.5000	277	27	1945.4749	1352.7057	99.383469	101.66983	99.546083
13.5000	13.5050	326	21	1945.3774	1377.8426	99.708703	101.31122	99.369869
13.5050	13.5100	361	31	1945.2717	1401.3272	99.929912	101.06607	99.268331
13.5100	13.5150	376	39	1945.1361	1418.8209	99.771962	101.23445	99.439069
13.5150	13.5200	402	33	1945.0004	1436.3146	99.614012	101.40282	99.609806
13.5200	13.5250	384	28	1944.8760	1450.6000	99.501499	101.28335	99.530752
13.5250	13.5300	347	22	1944.7561	1463.6072	99.407089	101.04919	99.352173
13.5300	13.5350	340	24	1944.6296	1474.9126	99.303478	100.83331	99.177007
13.5350	13.5400	266	25	1944.4793	1480.0123	99.166135	100.68403	99.014124
13.5400	13.5450	251	22	1944.3290	1485.1102	99.028843	100.53480	98.851303
13.5450	13.5500	182	19	1944.1755	1486.4904	98.801333	100.52483	98.807477
13.5500	13.5550	151	21	1944.0207	1486.3875	98.537970	100.57039	98.811121
13.5550	13.5600	139	16	1943.8673	1486.1907	98.336113	100.55893	98.752037
13.5600	13.5650	135	26	1943.7188	1485.6507	98.359063	100.33922	98.463863
13.5650	13.5700	121	20	1943.5704	1485.1107	98.382013	100.11951	98.175690
13.5700	13.5750	96	13	1943.4209	1484.6126	98.333508	99.956766	98.092665
13.5750	13.5800	84	15	1943.2710	1484.1314	98.256536	99.816758	98.091408
13.5800	13.5850	80	9	1943.1213	1483.6442	98.169156	99.678848	98.047331
13.5850	13.5900	80	9	1942.9725	1483.1362	98.043915	99.548847	97.846939
13.5900	13.5950	67	12	1942.8236	1482.6280	97.918626	99.418796	97.646470
13.5950	13.6000	59	8	1942.7009	1482.1442	97.879153	99.374381	97.482393
13.6000	13.6050	71	7	1942.5884	1481.6698	97.873868	99.364079	97.332762
13.6050	13.6100	60	7	1942.4816	1481.1881	97.815619	99.330888	97.177364
13.6100	13.6150	77	15	1942.3954	1480.6793	97.563979	99.214120	97.000934
13.6150	13.6200	78	11	1942.3093	1480.1703	97.312242	99.097308	96.824436
13.6200	13.6250	78	11	1942.3740	1479.6355	97.251545	98.911925	96.736237
13.6250	13.6300	107	10	1942.4989	1479.0901	97.267027	98.699087	96.683217
13.6300	13.6350	114	17	1942.5768	1478.5566	97.219743	98.545730	96.610331
13.6350	13.6400	123	8	1942.4825	1478.0656	96.942883	98.609618	96.464692
13.6400	13.6450	130	21	1942.3883	1477.5746	96.666024	98.673505	96.319054
13.6450	13.6500	110	11	1942.2962	1477.1077	96.748303	98.468089	96.146295
13.6500	13.6550	129	11	1942.2050	1476.6505	96.973921	98.155188	95.962712
13.6550	13.6600	121	14	1942.1106	1476.2013	97.068599	97.887466	95.797216
13.6600	13.6650	145	13	1942.0049	1475.7811	96.684120	97.784813	95.697746
13.6650	13.6700	131	16	1941.8991	1475.3610	96.299788	97.682200	95.598313
13.6700	13.6750	182	10	1941.7946	1474.9103	96.256377	97.577631	95.550323
13.6750	13.6800	177	16	1941.6906	1474.4477	96.349108	97.472337	95.522900
13.6800	13.6850	174	17	1941.5865	1473.9870	96.420277	97.341474	95.469100
13.6850	13.6900	216	18	1941.4824	1473.5339	96.412490	97.117125	95.318814
13.6900	13.6950	213	23	1941.3782	1473.0808	96.404704	96.892777	95.168527
13.6950	13.7000	214	22	1941.2521	1472.6045	96.091977	96.725191	95.080680
13.7000	13.7050	213	16	1941.1173	1472.1190	95.657606	96.580292	95.017770
13.7050	13.7100	187	16	1940.9722	1471.6274	95.373317	96.441190	94.921147
13.7100	13.7150	213	10	1940.7900	1471.1141	95.638609	96.323548	94.701360
13.7150	13.7200	169	19	1940.6078	1470.6006	95.904003	96.205862	94.481489
13.7200	13.7250	170	12	1940.3811	1470.0796	95.832302	96.246896	94.354185
13.7250	13.7300	158	13	1940.1366	1469.5553	95.626034	96.351292	94.263783
13.7300	13.7350	144	10	1939.8903	1469.0174	95.441687	96.349475	94.142549
13.7350	13.7400	136	16	1939.6374	1468.4296	95.337595	95.958947	93.908501
13.7400	13.7450	141	13	1939.3844	1467.8415	95.233463	95.568270	93.674364
13.7450	13.7500	135	23	1939.1380	1467.2026	95.170496	95.474324	93.586421
13.7500	13.7550	135	17	1938.8941	1466.5430	95.123944	95.498885	93.556844
13.7550	13.7600	153	17	1938.6485	1465.8708	95.022938	95.519144	93.514154
13.7600	13.7650	179	15	1938.3960	1465.1514	94.722402	95.523682	93.423386
13.7650	13.7700	172	17	1938.1435	1464.4319	94.421866	95.528220	93.332619
13.7700	13.7750	179	16	1937.8871	1463.7723	94.501472	95.390334	93.118458
13.7750	13.7800	217	16	1937.6291	1463.1365	94.733010	95.195526	92.854980
13.7800	13.7850	216	24	1937.3717	1462.5075	94.836220	95.048972	92.622589
13.7850	13.7900	212	17	1937.1165	1461.9025	94.469001	95.079193	92.503937
13.7900	13.7950	232	25	1936.8614	1461.2977	94.101922	95.109403	92.385330
13.7950	13.8000	243	33	1936.6174	1460.7036	94.012255	94.929698	92.222252
13.8000	13.8050	222	18	1936.3781	1460.1142	94.033555	94.666157	92.041481
13.8050	13.8100	218	14	1936.1426	1459.5397	94.032271	94.427726	91.876960
13.8100	13.8150	218	17	1935.9214	1459.0207	93.948175	94.281535	91.772138
13.8150	13.8200	238	13	1935.7003	1458.5019	93.864094	94.135372	91.667336
13.8200	13.8250	239	18	1935.4895	1457.9934	93.539071	94.015056	91.541663
13.8250	13.8300	205	17	1935.2829	1457.4894	93.117812	93.905147	91.407706
13.8300	13.8350	265	22	1935.0709	1456.9852	92.801908	93.804504	91.273350
13.8350	13.8400	187	14	1934.8393	1456.4813	92.872749	93.738007	91.137770
13.8400	13.8450	155	22	1934.6076	1455.9771	92.943616	93.671484	91.002138
13.8450	13.8500	164	16	1934.3796	1455.4576	92.771820	93.631543	90.899585
13.8500	13.8550	133	9	1934.1530	1454.9316	92.502942	93.602215	90.810222
13.8550	13.8600	106	8	1933.9249	1454.3781	92.279401	93.475991	90.691148
13.8600	13.8650	112	14	1933.6914	1453.7234	92.222179	92.994410	90.463127
13.8650	13.8700	95	14	1933.4578	1453.0684	92.164936	92.512646	90.235019
13.8700	13.8750	96	6	1933.2209	1452.4429	92.042929	92.333655	90.107863
13.8750	13.8800	68	12	1932.9824	1451.8288	91.894938	92.275743	90.021041
13.8800	13.8850	80	8	1932.7456	1451.2150	91.767497	92.160660	89.898045
13.8850	13.8900	84	12	1932.5140	1450.6017	91.715256	91.835612	89.642116
13.8900	13.8950	86	15	1932.2824	1449.9884	91.663015	91.510564	89.386188
13.8950	13.9000	86	16	1932.0258	1449.3859	91.515083	91.256722	89.004626
13.9000	13.9050	82	12	1931.7591	1448.7877	91.328835	91.031390	88.572761
13.9050	13.9100	73	15	1931.4839	1448.1716	91.096970	90.798564	88.172117
13.9100	13.9150	68	7	1931.1772	1447.4889	90.697246	90.537948	87.885756
13.9150	13.9200	82	10	1930.8706	1446.8065	90.297674	90.277431	87.599505
13.9200	13.9250	107	12	1930.5641	1446.1571	90.242377	90.020133	86.979819
13.9250	13.9300	99	12	1930.2579	1445.5213	90.325018	89.764264	86.226899
13.9300	13.9350	113	9	1929.9514	1444.8697	90.379131	89.591664	85.470762
13.9350	13.9400	125	9	1929.6445	1444.1607	90.328358	89.725226	84.703335
13.9400	13.9450	93	8	1929.3377	1443.4518	90.277595	89.858763	83.936055
13.9450	13.9500	96	12	1929.0331	1442.7355	90.253032	89.464461	82.865353
13.9500	13.9550	136	12	1928.7296	1442.0166	90.238985	88.858796	81.673601
13.9550	13.9600	117	16	1928.4275	1441.3015	90.173242	88.296789	80.617138
13.9600	13.9650	98	9	1928.1313	1440.6016	89.917780	87.896101	80.059358
13.9650	13.9700	90	17	1927.8349	1439.9014	89.662221	87.495260	79.501365
13.9700	13.9750	94	10	1927.4955	1439.1829	89.356306	87.336413	79.880057
13.9750	13.9800	73	6	1927.1386	1438.4567	89.030121	87.274416	80.633968
13.9800	13.9850	85	10	1926.6450	1437.7362	88.795816	87.155022	81.449510
13.9850	13.9900	67	9	1925.6489	1437.0368	88.899128	86.824774	82.491337
13.9900	13.9950	82	16	1924.6524	1436.3371	89.002480	86.494400	83.533561
13.9950	14.0000	72	9	1920.2384	1435.6848	88.943102	86.027118	84.741915
14.0000	14.0050	91	12	1914.4527	1435.0510	88.818487	85.504727	86.017482
14.0050	14.0100	95	13	1907.6435	1434.4374	88.663706	84.929266	87.316901
14.0100	14.0150	118	11	1897.0619	1433.8968	88.397812	84.157846	88.706047
14.0150	14.0200	123	13	1886.4804	1433.3561	88.131918	83.386425	90.095192
14.0200	14.0250	132	11	1871.4432	1433.0075	88.053046	82.916804	90.831645
14.0250	14.0300	135	15	1854.6196	1432.7359	88.049154	82.568179	91.306422
14.0300	14.0350	158	8	1836.0739	1432.4532	87.970274	82.233483	91.655980
14.0350	14.0400	163	14	1811.1682	1432.1299	87.615252	81.949697	91.544951
14.0400	14.0450	143	20	1786.2721	1431.8066	87.260366	81.666019	91.433964
14.0450	14.0500	157	18	1761.1371	1431.4327	87.212745	82.132401	91.324712
14.0500	14.0550	124	13	1735.9197	1431.0385	87.288391	82.899372	91.216215
14.0550	14.0600	149	14	1713.1657	1430.5956	87.274932	83.706321	91.105125
14.0600	14.0650	145	10	1699.4908	1429.9736	86.933664	84.659779	90.984571
14.0650	14.0700	149	13	1685.8185	1429.3517	86.592461	85.613055	90.864040
14.0700	14.0750	132	11	1682.4883	1428.6297	86.446115	86.369234	90.745642
14.0750	14.0800	100	15	1683.3104	1427.8680	86.378047	87.045912	90.628164
14.0800	14.0850	110	13	1685.2691	1427.1074	86.270311	87.794361	90.510800
14.0850	14.0900	84	13	1691.4056	1426.3520	86.016838	88.805502	90.394069
14.0900	14.0950	92	12	1697.5445	1425.5963	85.763269	89.817029	90.277292
14.0950	14.1000	94	15	1709.7466	1424.8225	85.415924	90.448190	90.159418
14.1000	14.1050	106	11	1724.3848	1424.0412	85.030847	90.927010	90.041063
14.1050	14.1100	94	11	1738.2715	1423.2804	84.689572	91.310820	89.921892
14.1100	14.1150	107	8	1749.3874	1422.5955	84.509701	91.344605	89.799740
14.1150	14.1200	95	10	1760.5075	1421.9104	84.329760	91.378403	89.677540
14.1200	14.1250	114	10	1767.4463	1421.2285	83.874063	91.301884	89.562547
14.1250	14.1300	108	11	1772.7100	1420.5477	83.307410	91.181033	89.450385
14.1300	14.1350	95	17	1777.6560	1419.8551	82.882210	91.061452	89.337635
14.1350	14.1400	104	12	1781.4396	1419.1185	82.977299	90.946353	89.222542
14.1400	14.1450	106	14	1785.2232	1418.3818	83.072387	90.831254	89.107448
14.1450	14.1500	102	12	1788.4459	1417.6610	82.913302	90.718132	88.993236
14.1500	14.1550	133	6	1791.4432	1416.9467	82.652124	90.605803	88.879379
14.1550	14.1600	142	9	1794.1463	1416.2183	82.341107	90.491710	88.764559
14.1600	14.1650	150	16	1795.7668	1415.4373	81.845859	90.370985	88.646062
14.1650	14.1700	192	20	1797.3866	1414.6566	81.350800	90.250305	88.527611
14.1700	14.1750	218	18	1800.4031	1413.8943	81.013731	90.124436	88.409070
14.1750	14.1800	266	30	1803.9790	1413.1397	80.740323	89.996548	88.290556
14.1800	14.1850	338	30	1806.6956	1412.3796	80.345079	89.871025	88.172698
14.1850	14.1900	429	35	1806.2425	1411.5993	79.501019	89.754306	88.057338
14.1900	14.1950	473	37	1805.7894	1410.8191	78.657120	89.637609	87.942001
14.1950	14.2000	542	49	1807.3482	1410.0797	78.755022	89.516124	87.822454
14.2000	14.2050	543	50	1809.7150	1409.3572	79.231490	89.392779	87.701279
14.2050	14.2100	623	47	1811.8295	1408.6475	79.618949	89.270543	87.579582
14.2100	14.2150	513	33	1813.0096	1407.9860	79.677573	89.152612	87.456180
14.2150	14.2200	434	38	1814.1902	1407.3244	79.736220	89.034636	87.332730
14.2200	14.2250	391	36	1815.2252	1406.7072	80.379428	88.914403	87.211006
14.2250	14.2300	291	24	1816.2020	1406.1077	81.257610	88.793221	87.089933
14.2300	14.2350	268	25	1817.2586	1405.5191	82.025258	88.673361	86.968929
14.2350	14.2400	226	23	1818.6090	1404.9707	82.385067	88.558397	86.848207
14.2400	14.2450	247	17	1819.9600	1404.4221	82.745014	88.443388	86.727438
14.2450	14.2500	202	18	1820.1520	1403.8264	83.331488	88.328664	86.612134
14.2500	14.2550	239	20	1819.8780	1403.2115	84.009389	88.213993	86.498967
14.2550	14.2600	193	19	1819.8069	1402.5968	84.671655	88.099667	86.384836
14.2600	14.2650	216	17	1820.4845	1401.9820	85.277259	87.986432	86.266967
14.2650	14.2700	198	10	1821.1622	1401.3672	85.882863	87.873198	86.149099
14.2700	14.2750	177	16	1822.7007	1400.7713	86.076040	87.762129	86.032585
14.2750	14.2800	136	17	1824.5856	1400.1831	86.103312	87.651930	85.916618
14.2800	14.2850	148	18	1825.7221	1399.5780	86.133954	87.538000	85.800093
14.2850	14.2900	105	11	1824.0939	1398.9097	86.177084	87.410150	85.681384
14.2900	14.2950	99	10	1822.4663	1398.2417	86.220198	87.282350	85.562720
14.2950	14.3000	87	9	1823.3085	1397.5383	86.155329	87.159881	85.443174
14.3000	14.3050	74	13	1825.1445	1396.8209	86.047030	87.039622	85.323337
14.3050	14.3100	83	15	1826.4750	1396.1008	85.936897	86.920366	85.204111
14.3100	14.3150	91	7	1825.9371	1395.3710	85.820064	86.804894	85.087228
14.3150	14.3200	98	15	1825.3993	1394.6412	85.703253	86.689445	84.970368
14.3200	14.3250	102	11	1825.0805	1393.8934	85.593464	86.574354	84.853997
14.3250	14.3300	112	19	1824.8501	1393.1386	85.486563	86.459470	84.737885
14.3300	14.3350	121	26	1824.9864	1392.3887	85.376393	86.344475	84.621284
14.3350	14.3400	162	16	1826.4770	1391.6579	85.254350	86.229279	84.503086
14.3400	14.3450	150	20	1827.9682	1390.9268	85.132260	86.114039	84.384842
14.3450	14.3500	169	16	1828.0860	1390.1500	85.009929	85.989298	84.257427
14.3500	14.3550	199	13	1827.6512	1389.3546	84.887459	85.860691	84.126278
14.3550	14.3600	198	18	1827.0814	1388.5595	84.765479	85.732882	83.996805
14.3600	14.3650	225	25	1826.0130	1387.7660	84.645331	85.608046	83.873553
14.3650	14.3700	261	22	1824.9442	1386.9722	84.525137	85.483162	83.750254
14.3700	14.3750	278	23	1825.6143	1386.1311	84.403284	85.363198	83.627307
14.3750	14.3800	274	25	1826.9848	1385.2706	84.280697	85.245150	83.504436
14.3800	14.3850	235	26	1827.8603	1384.4131	84.158359	85.126232	83.381328
14.3850	14.3900	195	21	1826.9075	1383.5655	84.036743	85.003904	83.257146
14.3900	14.3950	201	16	1825.9547	1382.7179	83.915127	84.881577	83.132964
14.3950	14.4000	179	13	1826.8305	1381.9249	83.792918	84.760430	83.013058
14.4000	14.4050	177	16	1828.4428	1381.1538	83.670471	84.639758	82.894873
14.4050	14.4100	158	21	1829.2161	1380.4027	83.551245	84.517633	82.775981
14.4100	14.4150	168	19	1826.8845	1379.7248	83.443809	84.389996	82.654338
14.4150	14.4200	155	15	1824.5537	1379.0473	83.336414	84.262407	82.532742
14.4200	14.4250	162	18	1823.9408	1378.4165	83.225505	84.137393	82.412568
14.4250	14.4300	160	11	1824.0205	1377.8049	83.113239	84.013484	82.293032
14.4300	14.4350	139	17	1824.3732	1377.1917	83.000245	83.889897	82.174032
14.4350	14.4400	126	18	1825.7362	1376.5730	82.884633	83.767587	82.057102
14.4400	14.4450	128	9	1827.0989	1375.9543	82.769042	83.645300	81.940195
14.4450	14.4500	126	11	1826.6063	1375.3090	82.651186	83.531091	81.823215
14.4500	14.4550	130	16	1825.3658	1374.6533	82.532478	83.420201	81.706269
14.4550	14.4600	113	18	1824.1943	1373.9789	82.414030	83.307847	81.589704
14.4600	14.4650	120	13	1823.2811	1373.2365	82.296754	83.190277	81.474762
14.4650	14.4700	115	11	1822.3674	1372.4938	82.179434	83.072662	81.359776
14.4700	14.4750	114	10	1822.9588	1371.7233	82.065748	82.951651	81.232065
14.4750	14.4800	126	14	1824.1571	1370.9412	81.953488	82.829229	81.099181
14.4800	14.4850	96	9	1824.6624	1370.1605	81.840082	82.705973	80.966166
14.4850	14.4900	107	16	1822.6019	1369.3849	81.722453	82.579650	80.832696
14.4900	14.4950	123	12	1820.5405	1368.6091	81.604780	82.453279	80.699174
14.4950	14.5000	107	11	1821.1684	1367.8334	81.494473	82.326754	80.573298
14.5000	14.5050	100	13	1822.8812	1367.0575	81.387077	82.200099	80.450438
14.5050	14.5100	127	4	1824.0199	1366.2997	81.277680	82.076563	80.330269
14.5100	14.5150	159	16	1823.0335	1365.6077	81.160689	81.964384	80.219874
14.5150	14.5200	142	15	1822.0470	1364.9158	81.043698	81.852204	80.109479
14.5200	14.5250	179	22	1821.6904	1364.2683	80.925839	81.744822	80.021736
14.5250	14.5300	222	25	1821.5881	1363.6389	80.807630	81.639376	79.943138
14.5300	14.5350	241	17	1821.6113	1363.0112	80.690585	81.530550	79.864129
14.5350	14.5400	263	20	1822.1001	1362.3899	80.577736	81.409068	79.783511
14.5400	14.5450	221	14	1822.5887	1361.7687	80.464929	81.287632	79.702924
14.5450	14.5500	198	11	1821.4511	1361.0793	80.352992	81.165769	79.612473
14.5500	14.5550	209	13	1819.6576	1360.3628	80.241466	81.043801	79.518089
14.5550	14.5600	174	19	1818.5021	1359.6371	80.128726	80.921147	79.421699
14.5600	14.5650	153	18	1819.7146	1358.8780	80.011559	80.796039	79.317934
14.5650	14.5700	134	14	1820.9268	1358.1191	79.894415	80.670955	79.214190
14.5700	14.5750	123	13	1820.9394	1357.3714	79.782539	80.560953	79.107526
14.5750	14.5800	129	11	1820.4674	1356.6287	79.672851	80.457104	78.999738
14.5800	14.5850	115	7	1819.6688	1355.8978	79.561264	80.352094	78.890675
14.5850	14.5900	103	11	1817.6609	1355.2126	79.442833	80.242972	78.777078
14.5900	14.5950	94	18	1815.6523	1354.5271	79.324357	80.133807	78.663438
14.5950	14.6000	85	11	1815.9936	1353.8498	79.207465	80.036437	78.553819
14.6000	14.6050	96	17	1817.2832	1353.1756	79.091171	79.943793	78.445785
14.6050	14.6100	99	5	1818.0871	1352.5028	78.975461	79.853105	78.336071
14.6100	14.6150	59	10	1817.0879	1351.8354	78.861935	79.769693	78.220144
14.6150	14.6200	68	2	1816.0883	1351.1678	78.748366	79.686248	78.104172
14.6200	14.6250	80	7	1814.3352	1350.5096	78.637380	79.590371	77.991826
14.6250	14.6300	80	6	1812.2768	1349.8548	78.527378	79.489419	77.880885
14.6300	14.6350	57	10	1811.0914	1349.1892	78.417117	79.388285	77.770679
14.6350	14.6400	75	11	1813.1437	1348.4823	78.305717	79.286317	77.663025
14.6400	14.6450	76	14	1815.1960	1347.7754	78.194316	79.184348	77.555372
14.6450	14.6500	108	9	1813.4592	1347.0874	78.064106	79.080098	77.449303
14.6500	14.6550	104	8	1810.1910	1346.4070	77.926293	78.974925	77.343876
14.6550	14.6600	121	12	1807.6580	1345.7235	77.794548	78.869486	77.236998
14.6600	14.6650	114	8	1807.8551	1345.0280	77.685219	78.762939	77.124617
14.6650	14.6700	112	11	1808.0522	1344.3328	77.575932	78.656432	77.012278
14.6700	14.6750	123	11	1808.1451	1343.6700	77.460857	78.547460	76.900161
14.6750	14.6800	119	11	1808.1958	1343.0206	77.343503	78.437550	76.788194
14.6800	14.6850	98	9	1807.9821	1342.3727	77.229096	78.327102	76.675936
14.6850	14.6900	95	10	1806.7854	1341.7310	77.125725	78.214738	76.562671
14.6900	14.6950	94	12	1805.5889	1341.0894	77.022374	78.102395	76.449428
14.6950	14.7000	89	7	1805.8384	1340.4257	76.912830	77.988798	76.334202
14.7000	14.7050	74	11	1806.6728	1339.7533	76.800839	77.874756	76.218235
14.7050	14.7100	87	7	1806.6364	1339.0721	76.687732	77.761122	76.103746
14.7100	14.7150	74	10	1803.3657	1338.3588	76.570687	77.649214	75.994955
14.7150	14.7200	74	13	1800.0936	1337.6453	76.453597	77.537264	75.886123
14.7200	14.7250	68	9	1798.0417	1336.8945	76.340941	77.427593	75.779174
14.7250	14.7300	91	7	1796.4824	1336.1284	76.230038	77.318807	75.672949
14.7300	14.7350	73	11	1795.2130	1335.3622	76.116597	77.209492	75.567200
14.7350	14.7400	76	10	1795.0216	1334.5962	75.993744	77.098235	75.463242
14.7400	14.7450	95	12	1794.8301	1333.8299	75.870843	76.986936	75.359244
14.7450	14.7500	85	13	1793.6619	1332.7305	75.752469	76.854780	75.239762
14.7500	14.7550	81	4	1792.0976	1331.4956	75.635863	76.714113	75.113949
14.7550	14.7600	86	12	1790.6761	1330.3010	75.518322	76.576335	74.988686
14.7600	14.7650	86	7	1789.7828	1329.2544	75.397116	76.449085	74.865264
14.7650	14.7700	64	6	1788.8895	1328.2079	75.275910	76.321836	74.741843
14.7700	14.7750	60	11	1786.6139	1327.3979	75.182499	76.205468	74.630439
14.7750	14.7800	57	9	1783.7787	1326.6836	75.100340	76.093505	74.523900
14.7800	14.7850	53	6	1781.2791	1325.9564	75.015104	75.983305	74.417509
14.7850	14.7900	52	6	1780.0268	1325.1801	74.918316	75.879548	74.311556
14.7900	14.7950	57	4	1778.7750	1324.4040	74.821564	75.775830	74.205643
14.7950	14.8000	51	7	1778.1041	1323.6872	74.722206	75.672485	74.100844
14.8000	14.8050	53	6	1777.6689	1322.9948	74.621846	75.569346	73.996552
14.8050	14.8100	55	9	1776.9956	1322.2209	74.521720	75.467053	73.892928
14.8100	14.8150	76	10	1775.4364	1321.1441	74.422532	75.367978	73.791864
14.8150	14.8200	60	6	1773.8775	1320.0674	74.323363	75.268923	73.690819
14.8200	14.8250	61	8	1772.1924	1318.7937	74.220288	75.167056	73.590360
14.8250	14.8300	68	4	1770.4571	1317.4409	74.115686	75.064104	73.490194
14.8300	14.8350	49	10	1768.7131	1316.1155	74.011095	74.960677	73.389658
14.8350	14.8400	71	8	1766.9402	1314.8948	73.906739	74.855671	73.287932
14.8400	14.8450	59	5	1765.1666	1313.6737	73.802343	74.750624	73.186167
14.8450	14.8500	47	10	1759.9970	1312.7341	73.697279	74.646009	73.083514
14.8500	14.8550	52	7	1753.4505	1311.9082	73.591908	74.541533	72.980464
14.8550	14.8600	40	10	1747.7738	1311.1725	73.485682	74.437098	72.877198
14.8600	14.8650	53	14	1745.3385	1310.7730	73.376294	74.332838	72.773145
14.8650	14.8700	59	8	1742.9024	1310.3734	73.266863	74.228538	72.669051
14.8700	14.8750	62	14	1737.2525	1309.9214	73.161271	74.125262	72.563000
14.8750	14.8800	51	11	1730.2969	1309.4479	73.057177	74.022345	72.456097
14.8800	14.8850	72	6	1723.1760	1308.9551	72.952144	73.919910	72.348594
14.8850	14.8900	76	13	1715.4279	1308.3893	72.843441	73.819103	72.238678
14.8900	14.8950	86	8	1707.6798	1307.8234	72.734738	73.718296	72.128763
14.8950	14.9000	95	5	1699.9405	1307.2456	72.633028	73.617764	72.021351
14.9000	14.9050	89	7	1692.2048	1306.6630	72.534153	73.517345	71.914954
14.9050	14.9100	91	9	1683.4738	1306.0508	72.433684	73.416129	71.809198
14.9100	14.9150	89	13	1671.0188	1305.3277	72.327152	73.311831	71.705722
14.9150	14.9200	128	18	1658.5686	1304.6048	72.220661	73.207572	71.602285
14.9200	14.9250	93	16	1651.2768	1303.8823	72.113679	73.105085	71.503234
14.9250	14.9300	93	12	1646.0813	1303.1604	72.006557	73.003371	71.406016
14.9300	14.9350	93	13	1643.0041	1302.4440	71.900351	72.901597	71.309640
14.9350	14.9400	99	11	1647.8315	1301.7491	71.797644	72.799673	71.216479
14.9400	14.9450	131	9	1652.6580	1301.0544	71.694957	72.697769	71.123336
14.9450	14.9500	137	14	1666.2655	1300.3414	71.590591	72.593241	71.022719
14.9500	14.9550	142	18	1683.4294	1299.6213	71.485600	72.487704	70.919122
14.9550	14.9600	151	21	1701.9755	1298.8862	71.381322	72.380648	70.814506
14.9600	14.9650	213	18	1725.6426	1298.0966	71.279888	72.268119	70.706277
14.9650	14.9700	221	21	1749.3186	1297.3066	71.178416	72.155547	70.598006
14.9700	14.9750	258	22	1769.6852	1296.5056	71.072555	72.042581	70.483086
14.9750	14.9800	314	33	1788.7166	1295.6998	70.964878	71.929415	70.365429
14.9800	14.9850	402	22	1807.3915	1294.9354	70.857758	71.817740	70.248997
14.9850	14.9900	539	36	1824.7322	1294.3255	70.752742	71.711655	70.137155
14.9900	14.9950	670	49	1842.0795	1293.7154	70.647686	71.605530	70.025271
14.9950	15.0000	884	70	1851.1152	1293.0818	70.540542	71.498695	69.914073
15.0000	15.0050	1035	59	1856.7808	1292.4383	70.432494	71.391514	69.803094
15.0050	15.0100	1095	71	1861.4605	1291.7858	70.324202	71.283678	69.692867
15.0100	15.0150	1069	62	1862.4657	1291.0992	70.214828	71.173219	69.585265
15.0150	15.0200	924	71	1863.4710	1290.4125	70.105454	71.062760	69.477664
15.0200	15.0250	887	63	1863.5668	1289.6898	69.997951	70.954890	69.374120
15.0250	15.0300	708	65	1863.2934	1288.9524	69.891208	70.848072	69.272223
15.0300	15.0350	575	50	1863.0202	1288.2072	69.784176	70.739853	69.168853
15.0350	15.0400	474	38	1862.7479	1287.4322	69.675946	70.626279	69.059864
15.0400	15.0450	391	29	1862.4756	1286.6574	69.567758	70.512748	68.950916
15.0450	15.0500	306	23	1862.2027	1285.9578	69.460845	70.400614	68.841280
15.0500	15.0550	273	24	1861.9295	1285.2888	69.354459	70.289055	68.731371
15.0550	15.0600	215	22	1861.6558	1284.6090	69.248480	70.178322	68.621300
15.0600	15.0650	242	22	1861.3804	1283.8892	69.144022	70.070673	68.510619
15.0650	15.0700	223	21	1861.1050	1283.1693	69.039564	69.963025	68.399939
15.0700	15.0750	204	21	1860.8297	1282.4423	68.933592	69.857244	68.292806
15.0750	15.0800	214	19	1860.5544	1281.7127	68.827026	69.752242	68.187136
15.0800	15.0850	198	18	1860.2787	1280.9791	68.720712	69.646149	68.081892
15.0850	15.0900	181	13	1860.0021	1280.2317	68.615535	69.536171	67.978435
15.0900	15.0950	165	14	1859.7254	1279.4842	68.510339	69.426172	67.874958
15.0950	15.1000	129	17	1859.4463	1278.7024	68.405070	69.320625	67.767880
15.1000	15.1050	120	10	1859.1662	1277.9066	68.299772	69.216888	67.659338
15.1050	15.1100	138	10	1858.8865	1277.1373	68.195196	69.113057	67.550485
15.1100	15.1150	110	9	1858.6078	1276.4668	68.093322	69.008875	67.440469
15.1150	15.1200	81	11	1858.3291	1275.7964	67.991449	68.904693	67.330452
15.1200	15.1250	70	9	1858.0473	1275.0620	67.888514	68.800502	67.220795
15.1250	15.1300	68	8	1857.7641	1274.3013	67.785100	68.696260	67.111235
15.1300	15.1350	68	14	1857.4811	1273.5336	67.680758	68.591810	67.001767
15.1350	15.1400	72	11	1857.1983	1272.7383	67.572775	68.486414	66.892470
15.1400	15.1450	80	11	1856.9156	1271.9430	67.464791	68.381017	66.783172
15.1450	15.1500	96	9	1856.6334	1271.1499	67.356710	68.274473	66.679138
15.1500	15.1550	108	17	1856.3515	1270.3576	67.248589	68.167462	66.577246
15.1550	15.1600	116	16	1856.0684	1269.5774	67.142510	68.060736	66.475051
15.1600	15.1650	149	7	1855.7808	1268.8414	67.043968	67.954958	66.371606
15.1650	15.1700	125	13	1855.4933	1268.1057	66.945464	67.849220	66.268200
15.1700	15.1750	152	15	1855.2096	1267.4220	66.845529	67.741635	66.170641
15.1750	15.1800	159	12	1854.9275	1266.7594	66.745020	67.633307	66.075470
15.1800	15.1850	154	15	1854.6450	1266.0854	66.644465	67.524532	65.980425
15.1850	15.1900	184	17	1854.3610	1265.3683	66.543738	67.414079	65.885851
15.1900	15.1950	197	17	1854.0771	1264.6512	66.443011	67.303627	65.791277
15.1950	15.2000	201	15	1853.7704	1263.9209	66.337926	67.194548	65.692845
15.2000	15.2050	172	15	1853.4546	1263.1854	66.231089	67.086050	65.592862
15.2050	15.2100	192	17	1853.1394	1262.4397	66.124429	66.977956	65.492008
15.2100	15.2150	196	13	1852.8271	1261.6566	66.018621	66.871568	65.388076
15.2150	15.2200	180	21	1852.5147	1260.8734	65.912793	66.765160	65.284124
15.2200	15.2250	183	20	1852.2006	1260.0545	65.806635	66.661372	65.176972
15.2250	15.2300	241	16	1851.8859	1259.2210	65.700343	66.558652	65.068518
15.2300	15.2350	205	12	1851.5716	1258.3968	65.595064	66.456621	64.959837
15.2350	15.2400	304	21	1851.2589	1257.6069	65.493578	66.357169	64.850307
15.2400	15.2450	333	34	1850.9462	1256.8170	65.392093	66.257716	64.740777
15.2450	15.2500	452	27	1850.6350	1255.9972	65.290317	66.158268	64.629935
15.2500	15.2550	489	31	1850.3242	1255.1650	65.188378	66.058776	64.518508
15.2550	15.2600	493	22	1850.0125	1254.3499	65.086407	65.959685	64.408167
15.2600	15.2650	460	25	1849.6969	1253.5977	64.984156	65.861938	64.301721
15.2650	15.2700	455	18	1849.3814	1252.8455	64.881905	65.764192	64.195275
15.2700	15.2750	376	21	1849.0775	1252.1032	64.781726	65.666296	64.092731
15.2750	15.2800	298	21	1848.7785	1251.3650	64.682390	65.568339	63.991777
15.2800	15.2850	262	11	1848.4698	1250.6205	64.582382	65.468783	63.888929
15.2850	15.2900	215	16	1848.1247	1249.8514	64.479745	65.363113	63.778856
15.2900	15.2950	168	20	1847.7798	1249.0826	64.377147	65.257483	63.668826
15.2950	15.3000	128	8	1847.4362	1248.3241	64.274394	65.150830	63.555545
15.3000	15.3050	131	11	1847.0933	1247.5699	64.171586	65.043770	63.440947
15.3050	15.3100	117	14	1846.7512	1246.8096	64.068817	64.936660	63.324811
15.3100	15.3150	106	15	1846.4125	1246.0266	63.966199	64.829365	63.202903
15.3150	15.3200	95	11	1846.0737	1245.2437	63.863581	64.722070	63.080995
15.3200	15.3250	77	8	1845.7334	1244.5284	63.762329	64.614193	62.963078
15.3250	15.3300	72	8	1845.3926	1243.8408	63.661654	64.506099	62.846811
15.3300	15.3350	78	9	1845.0521	1243.1299	63.560664	64.398525	62.737220
15.3350	15.3400	85	10	1844.7136	1242.3327	63.458676	64.293097	62.652880
15.3400	15.3450	75	7	1844.3750	1241.5353	63.356668	64.187649	62.568523
15.3450	15.3500	85	5	1844.0329	1240.7172	63.253478	64.077824	62.476106
15.3500	15.3550	109	17	1843.6893	1239.8906	63.149805	63.966213	62.380403
15.3550	15.3600	80	12	1843.3456	1239.0710	63.046401	63.855298	62.286019
15.3600	15.3650	102	5	1843.0013	1238.2779	62.944008	63.746992	62.196586
15.3650	15.3700	88	12	1842.6569	1237.4847	62.841615	63.638687	62.107153
15.3700	15.3750	77	8	1842.3124	1236.6572	62.738350	63.520982	62.015694
15.3750	15.3800	84	8	1841.9677	1235.8154	62.634682	63.399390	61.923368
15.3800	15.3850	88	8	1841.6108	1234.9872	62.532488	63.279584	61.829130
15.3850	15.3900	67	8	1841.2078	1234.2090	62.435662	63.166290	61.727560
15.3900	15.3950	64	6	1840.8049	1233.4309	62.338836	63.052997	61.625990
15.3950	15.4000	53	10	1840.4465	1232.6198	62.242464	62.952524	61.526152
15.4000	15.4050	45	9	1840.1063	1231.7952	62.146278	62.857283	61.427020
15.4050	15.4100	49	7	1839.7663	1230.9737	62.049576	62.761889	61.328562
15.4100	15.4150	65	9	1839.4266	1230.1628	61.950825	62.665812	61.232526
15.4150	15.4200	65	7	1839.0870	1229.3522	61.852112	62.569772	61.136527
15.4200	15.4250	78	8	1838.7235	1228.5732	61.755876	62.480639	61.040761
15.4250	15.4300	87	10	1838.3502	1227.8071	61.660659	62.394333	60.945097
15.4300	15.4350	90	10	1837.9763	1227.0366	61.564615	62.306371	60.850281
15.4350	15.4400	92	17	1837.6006	1226.2495	61.465461	62.212183	60.758656
15.4400	15.4450	120	11	1837.2248	1225.4623	61.366307	62.117994	60.667030
15.4450	15.4500	138	12	1836.8508	1224.7111	61.267938	62.022226	60.574479
15.4500	15.4550	139	10	1836.4776	1223.9748	61.169908	61.925830	60.481567
15.4550	15.4600	92	7	1836.1036	1223.2234	61.071513	61.828410	60.389048
15.4600	15.4650	99	6	1835.7272	1222.4169	60.971925	61.727314	60.298170
15.4650	15.4700	98	10	1835.3507	1221.6102	60.872319	61.626198	60.207274
15.4700	15.4750	99	11	1834.9763	1220.8420	60.771464	61.529345	60.113747
15.4750	15.4800	86	2	1834.6027	1220.0895	60.670100	61.434232	60.019145
15.4800	15.4850	78	10	1834.2290	1219.3356	60.568485	61.340712	59.924975
15.4850	15.4900	90	10	1833.8546	1218.5761	60.465928	61.253182	59.832429
15.4900	15.4950	81	11	1833.4802	1217.8167	60.363372	61.165652	59.739884
15.4950	15.5000	72	8	1833.1004	1217.0000	60.258693	61.071313	59.648566
15.5000	15.5050	81	1	1832.7182	1216.1594	60.153100	60.974147	59.557707
15.5050	15.5100	47	1	1832.3345	1215.3273	60.048209	60.877896	59.466028
15.5100	15.5150	61	1	1831.9450	1214.5258	59.945792	60.784929	59.371114
15.5150	15.5200	60	8	1831.5554	1213.7244	59.843374	60.691962	59.276199
15.5200	15.5250	51	11	1831.1666	1212.9262	59.738907	60.596049	59.179258
15.5250	15.5300	33	11	1830.7780	1212.1294	59.633601	60.498933	59.081489
15.5300	15.5350	29	8	1830.3900	1211.3235	59.529154	60.403284	58.983845
15.5350	15.5400	43	2	1830.0033	1210.4821	59.427825	60.313054	58.886560
15.5400	15.5450	34	12	1829.6168	1209.6409	59.326534	60.222859	58.789312
15.5450	15.5500	29	1	1829.2274	1208.7763	59.219300	60.132639	58.694455
15.5500	15.5550	27	7	1828.8368	1207.9022	59.109644	60.042417	58.600582
15.5550	15.5600	41	6	1828.4472	1207.0450	59.002251	59.950948	58.506958
15.5600	15.5650	28	7	1828.0612	1206.2518	58.903379	59.854786	58.414270
15.5650	15.5700	40	7	1827.6751	1205.4586	58.804508	59.758624	58.321581
15.5700	15.5750	48	7	1827.2898	1204.6854	58.709020	59.664964	58.226032
15.5750	15.5800	37	8	1826.9049	1203.9205	58.614934	59.572346	58.129333
15.5800	15.5850	54	11	1826.5181	1203.1263	58.520948	59.478056	58.033491
15.5850	15.5900	64	13	1826.1251	1202.2235	58.427505	59.377644	57.941054
15.5900	15.5950	78	3	1825.7321	1201.3205	58.334044	59.277212	57.848600
15.5950	15.6000	90	8	1825.3453	1200.4498	58.241086	59.179996	57.755459
15.6000	15.6050	120	6	1824.9611	1199.5923	58.148334	59.084095	57.662035
15.6050	15.6100	137	6	1824.5760	1198.7318	58.057324	58.987999	57.568116
15.6100	15.6150	160	18	1824.1874	1197.8605	57.972878	58.891169	57.472329
15.6150	15.6200	195	15	1823.7988	1196.9891	57.888432	58.794339	57.376541
15.6200	15.6250	215	16	1823.4108	1196.1348	57.793675	58.698582	57.279741
15.6250	15.6300	207	11	1823.0228	1195.2869	57.694654	58.603220	57.182483
15.6300	15.6350	164	14	1822.6340	1194.4311	57.595017	58.506921	57.084393
15.6350	15.6400	153	11	1822.2420	1193.5434	57.492897	58.406933	56.983008
15.6400	15.6450	120	9	1821.8499	1192.6557	57.390776	58.306944	56.881622
15.6450	15.6500	98	7	1821.4578	1191.7576	57.292987	58.204610	56.781595
15.6500	15.6550	69	7	1821.0657	1190.8553	57.196971	58.101317	56.682124
15.6550	15.6600	76	9	1820.6787	1189.9602	57.101307	57.999608	56.582305
15.6600	15.6650	54	7	1820.3106	1189.0915	57.006867	57.903771	56.481064
15.6650	15.6700	32	8	1819.9426	1188.2230	56.912462	57.807971	56.379861
15.6700	15.6750	39	2	1819.5760	1187.2719	56.819516	57.710541	56.280485
15.6750	15.6800	34	4	1819.2099	1186.2871	56.727174	57.612452	56.181865
15.6800	15.6850	29	3	1818.8434	1185.2787	56.634196	57.513925	56.084214
15.6850	15.6900	23	6	1818.4749	1184.1813	56.538822	57.413749	55.990218
15.6900	15.6950	26	1	1818.1063	1183.0839	56.443448	57.313572	55.896222
15.6950	15.7000	15	12	1817.7403	1182.0977	56.344601	57.216379	55.801714
15.7000	15.7050	19	5	1817.3754	1181.1573	56.244352	57.120425	55.707014
15.7050	15.7100	20	5	1817.0103	1180.2227	56.147362	57.023832	55.611999
15.7100	15.7150	18	5	1816.6456	1179.3120	56.062839	56.925009	55.515971
15.7150	15.7200	27	3	1816.2807	1178.4012	55.978301	56.826166	55.419923
15.7200	15.7250	38	6	1815.9165	1177.7415	55.886152	56.727593	55.324548
15.7250	15.7300	32	6	1815.5526	1177.1845	55.790885	56.629129	55.229449
15.7300	15.7350	23	5	1815.1762	1176.6663	55.695452	56.530544	55.134019
15.7350	15.7400	29	4	1814.7527	1176.2945	55.599412	56.431513	55.037361
15.7400	15.7450	26	7	1814.3290	1175.9226	55.503335	56.332444	54.940665
15.7450	15.7500	36	9	1813.8646	1175.5342	55.406142	56.235170	54.842157
15.7500	15.7550	40	6	1813.3833	1175.1390	55.308440	56.138580	54.742853
15.7550	15.7600	50	7	1812.9040	1174.6736	55.210625	56.041928	54.643356
15.7600	15.7650	51	6	1812.4312	1173.9424	55.112229	55.944882	54.542972
15.7650	15.7700	64	2	1811.9584	1173.2112	55.013833	55.847837	54.442588
15.7700	15.7750	46	10	1811.4893	1172.3595	54.916053	55.749086	54.345446
15.7750	15.7800	58	7	1811.0217	1171.4583	54.818525	55.649636	54.249632
15.7800	15.7850	61	9	1810.5546	1170.5389	54.720592	55.550793	54.153581
15.7850	15.7900	46	7	1810.0890	1169.5494	54.621017	55.454133	54.056525
15.7900	15.7950	50	9	1809.6235	1168.5603	54.521480	55.357510	53.959507
15.7950	15.8000	60	7	1809.1701	1167.5748	54.424595	55.257687	53.864837
15.8000	15.8050	66	11	1808.7215	1166.5909	54.328804	55.156561	53.771138
15.8050	15.8100	103	10	1808.2770	1165.6277	54.232141	55.055377	53.675761
15.8100	15.8150	115	10	1807.8477	1164.7430	54.132179	54.953978	53.574041
15.8150	15.8200	141	7	1807.4184	1163.8583	54.032217	54.852579	53.472321
15.8200	15.8250	149	6	1807.0256	1163.0319	53.929873	54.750900	53.372115
15.8250	15.8300	170	13	1806.6478	1162.2297	53.826572	54.649125	53.272549
15.8300	15.8350	152	14	1806.2684	1161.4203	53.723993	54.546446	53.171984
15.8350	15.8400	139	13	1805.8832	1160.5855	53.624333	54.440534	53.067823
15.8400	15.8450	126	9	1805.4980	1159.7505	53.524654	54.334601	52.963642
15.8450	15.8500	141	13	1805.0963	1158.8886	53.423847	54.232487	52.858203
15.8500	15.8550	148	10	1804.6879	1158.0156	53.322577	54.131941	52.752246
15.8550	15.8600	150	7	1804.2756	1157.1426	53.222275	54.032346	52.647113
15.8600	15.8650	178	13	1803.8488	1156.2693	53.125656	53.936371	52.545114
15.8650	15.8700	160	7	1803.4217	1155.3956	53.029001	53.840359	52.443075
15.8700	15.8750	140	10	1802.9898	1154.5437	52.930071	53.740950	52.343713
15.8750	15.8800	136	12	1802.5556	1153.7003	52.830155	53.640094	52.245396
15.8800	15.8850	109	5	1802.1215	1152.8520	52.729243	53.539300	52.147584
15.8850	15.8900	109	15	1801.6868	1151.9837	52.624395	53.438573	52.051529
15.8900	15.8950	72	13	1801.2521	1151.1153	52.519547	53.337847	51.955473
15.8950	15.9000	62	6	1800.7960	1150.2200	52.418404	53.235927	51.858266
15.9000	15.9050	47	8	1800.3311	1149.3135	52.318784	53.133518	51.760585
15.9050	15.9100	42	5	1799.8657	1148.3997	52.218855	53.031080	51.662638
15.9100	15.9150	30	7	1799.3977	1147.4574	52.117648	52.928415	51.563572
15.9150	15.9200	33	4	1798.9300	1146.5155	52.016480	52.825790	51.464545
15.9200	15.9250	29	7	1798.4606	1145.5872	51.920940	52.721855	51.367520
15.9250	15.9300	37	4	1797.9905	1144.6646	51.827721	52.617389	51.271325
15.9300	15.9350	42	9	1797.5208	1143.7481	51.733547	52.513965	51.174685
15.9350	15.9400	28	5	1797.0529	1142.8549	51.635755	52.414490	51.076355
15.9400	15.9450	41	8	1796.5850	1141.9616	51.537963	52.315014	50.978026
15.9450	15.9500	69	7	1796.1187	1141.0691	51.442434	52.216209	50.880488
15.9500	15.9550	69	11	1795.6531	1140.1770	51.347853	52.117698	50.783293
15.9550	15.9600	65	11	1795.1870	1139.2877	51.252768	52.019670	50.686079
15.9600	15.9650	112	9	1794.7202	1138.4108	51.155943	51.923652	50.588968
15.9650	15.9700	113	12	1794.2533	1137.5337	51.059100	51.827616	50.491839
15.9700	15.9750	111	7	1793.7885	1136.6368	50.961132	51.734885	50.394743
15.9750	15.9800	188	16	1793.3246	1135.7317	50.862703	51.643513	50.297661
15.9800	15.9850	176	27	1792.8612	1134.8297	50.765929	51.551640	50.201668
15.9850	15.9900	278	13	1792.4000	1133.9395	50.675449	51.457889	50.109820
15.9900	15.9950	335	33	1791.9386	1133.0490	50.584934	51.364102	50.017937
15.9950	16.0000	379	13	1791.4795	1132.1646	50.487909	51.266248	49.920817
16.0000	16.0050	357	27	1791.0210	1131.2823	50.388155	51.166671	49.821492
16.0050	16.0100	362	24	1790.5630	1130.3982	50.288818	51.066712	49.722413
16.0100	16.0150	300	21	1790.1062	1129.5061	50.190880	50.965122	49.624088
16.0150	16.0200	273	22	1789.6495	1128.6142	50.092979	50.863571	49.525801
16.0200	16.0250	273	11	1789.1875	1127.7520	49.997454	50.766095	49.424813
16.0250	16.0300	210	21	1788.7230	1126.9017	49.902871	50.670259	49.322676
16.0300	16.0350	200	23	1788.2591	1126.0545	49.807717	50.573990	49.222463
16.0350	16.0400	171	16	1787.7966	1125.2178	49.710226	50.475901	49.129375
16.0400	16.0450	194	17	1787.3344	1124.3814	49.612772	50.377848	49.036322
16.0450	16.0500	208	15	1786.8716	1123.5617	49.517514	50.277840	48.944342
16.0500	16.0550	266	15	1786.4089	1122.7494	49.423211	50.177081	48.852851
16.0550	16.0600	302	26	1785.9517	1121.9321	49.327533	50.077559	48.760436
16.0600	16.0650	332	26	1785.5149	1121.0957	49.226592	49.982696	48.664474
16.0650	16.0700	361	30	1785.0781	1120.2592	49.125652	49.887832	48.568513
16.0700	16.0750	405	31	1784.6510	1119.4141	49.028185	49.789048	48.473481
16.0750	16.0800	383	27	1784.2278	1118.5654	48.932131	49.688638	48.378815
16.0800	16.0850	320	23	1783.8042	1117.7166	48.836186	49.588623	48.283860
16.0850	16.0900	260	15	1783.3798	1116.8688	48.740832	49.490293	48.187978
16.0900	16.0950	228	16	1782.9554	1116.0209	48.645479	49.391963	48.092096
16.0950	16.1000	197	14	1782.4737	1115.1219	48.547933	49.297128	47.997695
16.1000	16.1050	192	27	1781.9686	1114.2019	48.449500	49.203748	47.903918
16.1050	16.1100	165	13	1781.4455	1113.2700	48.353001	49.110682	47.811071
16.1100	16.1150	112	18	1780.8531	1112.2919	48.263706	49.018676	47.721621
16.1150	16.1200	100	13	1780.2604	1111.3134	48.174377	48.926635	47.632137
16.1200	16.1250	128	13	1779.6688	1110.3256	48.085477	48.838590	47.540034
16.1250	16.1300	72	14	1779.0772	1109.3336	47.996707	48.752141	47.446805
16.1300	16.1350	76	13	1778.4862	1108.3447	47.907615	48.663731	47.354133
16.1350	16.1400	98	8	1777.8960	1107.3661	47.817135	48.567702	47.263412
16.1400	16.1450	94	9	1777.3061	1106.3879	47.726690	48.471711	47.172726
16.1450	16.1500	98	5	1776.7297	1105.4262	47.639858	48.383703	47.084112
16.1500	16.1550	87	6	1776.1587	1104.4711	47.554482	48.298951	46.996318
16.1550	16.1600	111	7	1775.5886	1103.5151	47.468541	48.213113	46.907942
16.1600	16.1650	87	9	1775.0208	1102.5542	47.380298	48.122979	46.817186
16.1650	16.1700	95	8	1774.4532	1101.5938	47.292088	48.032880	46.726464
16.1700	16.1750	86	9	1773.8844	1100.6452	47.202532	47.943554	46.638049
16.1750	16.1800	76	13	1773.3154	1099.7020	47.112469	47.854596	46.550632
16.1800	16.1850	50	2	1772.7442	1098.7587	47.021969	47.765103	46.461083
16.1850	16.1900	40	6	1772.1643	1097.8145	46.929767	47.673540	46.363379
16.1900	16.1950	56	6	1771.5844	1096.8704	46.837565	47.581976	46.265674
16.1950	16.2000	32	5	1771.0574	1095.9812	46.751826	47.489256	46.169514
16.2000	16.2050	42	8	1770.5519	1095.1146	46.668734	47.396046	46.073974
16.2050	16.2100	25	4	1770.0625	1094.2575	46.584387	47.303782	45.980234
16.2100	16.2150	37	7	1769.6346	1093.4383	46.495418	47.215285	45.893509
16.2150	16.2200	40	6	1769.2067	1092.6191	46.406449	47.126789	45.806784
16.2200	16.2250	30	3	1768.7640	1091.7734	46.315036	47.031423	45.727759
16.2250	16.2300	43	4	1768.3152	1090.9169	46.222628	46.933235	45.651927
16.2300	16.2350	51	3	1767.8587	1090.0562	46.131684	46.837457	45.580172
16.2350	16.2400	56	8	1767.3720	1089.1784	46.046181	46.750702	45.523826
16.2400	16.2450	64	10	1766.8850	1088.3003	45.960645	46.663913	45.467458
16.2450	16.2500	59	10	1766.3987	1087.4041	45.871511	46.578759	45.399517
16.2500	16.2550	49	7	1765.9123	1086.5000	45.780847	46.494233	45.326767
16.2550	16.2600	58	8	1765.3744	1085.5995	45.691416	46.406881	45.251332
16.2600	16.2650	65	5	1764.6392	1084.7107	45.606517	46.308619	45.165536
16.2650	16.2700	57	6	1763.9044	1083.8222	45.521650	46.210393	45.079774
16.2700	16.2750	67	5	1763.3784	1082.9824	45.433559	46.121602	44.990647
16.2750	16.2800	64	10	1762.9383	1082.1624	45.344104	46.036667	44.900099
16.2800	16.2850	60	2	1762.5005	1081.3471	45.256226	45.953274	44.810791
16.2850	16.2900	61	4	1762.0705	1080.5481	45.174197	45.875595	44.726043
16.2900	16.2950	64	9	1761.6408	1079.7494	45.092198	45.797945	44.641327
16.2950	16.3000	62	10	1761.1922	1078.9548	45.010101	45.723757	44.557870
16.3000	16.3050	69	4	1760.7361	1078.1624	44.928008	45.651036	44.474976
16.3050	16.3100	66	8	1760.2697	1077.3554	44.844358	45.577845	44.393054
16.3100	16.3150	67	5	1759.7637	1076.4921	44.754736	45.502831	44.314805
16.3150	16.3200	76	5	1759.2577	1075.6288	44.665115	45.427816	44.236557
16.3200	16.3250	65	7	1758.7462	1074.7516	44.577379	45.352116	44.157015
16.3250	16.3300	78	6	1758.2323	1073.8685	44.490407	45.276120	44.076927
16.3300	16.3350	63	5	1757.7186	1072.9798	44.402693	45.198652	43.996247
16.3350	16.3400	57	1	1757.2068	1072.0717	44.312316	45.115713	43.913461
16.3400	16.3450	50	4	1756.6950	1071.1636	44.221939	45.032775	43.830674
16.3450	16.3500	56	6	1756.1828	1070.2561	44.135986	44.946630	43.745581
16.3500	16.3550	58	5	1755.6704	1069.3489	44.051876	44.859174	43.659548
16.3550	16.3600	31	3	1755.1713	1068.4446	43.967933	44.773151	43.574339
16.3600	16.3650	44	2	1754.7224	1067.5501	43.884509	44.692466	43.492146
16.3650	16.3700	23	7	1754.2733	1066.6551	43.801053	44.611751	43.409923
16.3700	16.3750	22	3	1753.8269	1065.7758	43.717837	44.530514	43.327085
16.3750	16.3800	18	4	1753.3814	1064.9025	43.634675	44.449017	43.243949
16.3800	16.3850	21	5	1752.9361	1064.0433	43.551619	44.367604	43.161557
16.3850	16.3900	18	5	1752.4908	1063.2363	43.468811	44.286356	43.081855
16.3900	16.3950	14	3	1752.0457	1062.4296	43.386036	44.205140	43.002183
16.3950	16.4000	16	3	1751.5674	1061.6063	43.294455	44.125587	42.920267
16.4000	16.4050	28	7	1751.0753	1060.7757	43.199198	44.046691	42.837392
16.4050	16.4100	19	6	1750.5731	1059.9309	43.107081	43.966231	42.753896
16.4100	16.4150	14	3	1750.0315	1059.0302	43.026788	43.879649	42.667873
16.4150	16.4200	16	3	1749.4902	1058.1298	42.946526	43.793101	42.581883
16.4200	16.4250	16	5	1748.9504	1057.1886	42.862423	43.706138	42.496151
16.4250	16.4300	30	3	1748.4114	1056.2309	42.776778	43.619052	42.410573
16.4300	16.4350	17	4	1747.8723	1055.2726	42.691438	43.531867	42.324886
16.4350	16.4400	21	2	1747.3324	1054.3115	42.607232	43.444267	42.238753
16.4400	16.4450	25	3	1746.7925	1053.3504	42.523027	43.356668	42.152620
16.4450	16.4500	28	4	1746.2466	1052.4401	42.442422	43.271175	42.067706
16.4500	16.4550	22	4	1745.6981	1051.5507	42.363292	43.186539	41.983283
16.4550	16.4600	22	5	1745.1496	1050.6646	42.283643	43.101818	41.898869
16.4600	16.4650	25	2	1744.6023	1049.7930	42.202162	43.016931	41.814647
16.4650	16.4700	20	6	1744.0550	1048.9214	42.120681	42.932045	41.730425
16.4700	16.4750	23	3	1743.5078	1048.0437	42.045746	42.847320	41.645625
16.4750	16.4800	12	2	1742.9608	1047.1636	41.973533	42.762676	41.560599
16.4800	16.4850	16	2	1742.4242	1046.2926	41.900343	42.678526	41.475841
16.4850	16.4900	16	3	1741.9271	1045.4554	41.823314	42.596138	41.391983
16.4900	16.4950	15	2	1741.4298	1044.6178	41.746255	42.513719	41.308093
16.4950	16.5000	16	2	1740.9646	1043.7909	41.670352	42.431033	41.225109
16.5000	16.5050	14	5	1740.5125	1042.9680	41.594885	42.348192	41.142456
16.5050	16.5100	15	5	1740.0612	1042.1490	41.519408	42.265386	41.060058
16.5100	16.5150	14	2	1739.6127	1041.3439	41.443756	42.182566	40.978486
16.5150	16.5200	10	2	1739.1643	1040.5390	41.368133	42.099777	40.896945
16.5200	16.5250	15	3	1738.7159	1039.7249	41.289781	42.018241	40.816851
16.5250	16.5300	10	5	1738.2673	1038.9066	41.210271	41.937193	40.737326
16.5300	16.5350	13	5	1737.8119	1038.0854	41.131076	41.856015	40.658020
16.5350	16.5400	12	1	1737.3293	1037.2519	41.052941	41.774193	40.579405
16.5400	16.5450	16	4	1736.8469	1036.4187	40.974836	41.692402	40.500821
16.5450	16.5500	16	4	1736.3653	1035.5792	40.894897	41.610832	40.423120
16.5500	16.5550	17	2	1735.8844	1034.7375	40.814242	41.529397	40.345828
16.5550	16.5600	16	5	1735.4035	1033.7785	40.734458	41.447780	40.268364
16.5600	16.5650	12	3	1734.9229	1032.3692	40.657982	41.365432	40.190212
16.5650	16.5700	4	3	1734.4422	1030.9598	40.581507	41.283084	40.112061
16.5700	16.5750	13	2	1733.9633	1029.9707	40.504771	41.200468	40.031638
16.5750	16.5800	11	2	1733.4849	1029.1554	40.427916	41.117728	39.950265
16.5800	16.5850	18	6	1733.0075	1028.3343	40.350254	41.035220	39.869220
16.5850	16.5900	13	3	1732.5346	1027.4930	40.269654	40.953753	39.789586
16.5900	16.5950	19	1	1732.0618	1026.6518	40.189053	40.872287	39.709951
16.5950	16.6000	16	4	1731.5899	1025.8103	40.109659	40.792122	39.630128
16.6000	16.6050	33	6	1731.1185	1024.9689	40.030778	40.712510	39.550239
16.6050	16.6100	34	8	1730.6477	1024.1245	39.951702	40.633036	39.470762
16.6100	16.6150	33	6	1730.1787	1023.2670	39.871762	40.553972	39.392745
16.6150	16.6200	27	4	1729.7096	1022.4092	39.791791	40.474878	39.314699
16.6200	16.6250	21	6	1729.2592	1021.5640	39.713673	40.395963	39.237550
16.6250	16.6300	25	2	1728.8164	1020.7239	39.636310	40.317109	39.160761
16.6300	16.6350	20	3	1728.3738	1019.8799	39.558878	40.238403	39.083854
16.6350	16.6400	26	2	1727.9323	1019.0221	39.481292	40.160377	39.006612
16.6400	16.6450	22	4	1727.4910	1018.1647	39.403737	40.082381	38.929400
16.6450	16.6500	22	6	1727.0520	1017.2971	39.327212	40.003913	38.852023
16.6500	16.6550	16	4	1726.6138	1016.4251	39.251086	39.925219	38.774547
16.6550	16.6600	18	3	1726.1744	1015.5547	39.175044	39.846673	38.697270
16.6600	16.6650	23	8	1725.7296	1014.6889	39.099184	39.768549	38.620609
16.6650	16.6700	26	4	1725.2849	1013.8235	39.023354	39.690456	38.543978
16.6700	16.6750	26	4	1724.8551	1012.9424	38.945249	39.612354	38.467600
16.6750	16.6800	37	6	1724.4317	1012.0553	38.866243	39.534291	38.391368
16.6800	16.6850	25	4	1724.0141	1011.1780	38.787639	39.456306	38.315466
16.6850	16.6900	28	5	1723.6185	1010.3381	38.710548	39.378586	38.240802
16.6900	16.6950	38	8	1723.2229	1009.4982	38.633457	39.300865	38.166137
16.6950	16.7000	36	4	1722.8076	1008.6846	38.554153	39.221833	38.089596
16.7000	16.7050	41	8	1722.3840	1007.8818	38.473920	39.142245	38.012266
16.7050	16.7100	51	3	1721.9671	1007.0834	38.393660	39.062250	37.934667
16.7100	16.7150	56	7	1721.5765	1006.3036	38.313446	38.980843	37.856183
16.7150	16.7200	64	11	1721.1859	1005.5238	38.233232	38.899436	37.777699
16.7200	16.7250	108	8	1720.7716	1004.7229	38.153114	38.819173	37.698443
16.7250	16.7300	101	14	1720.3476	1003.9135	38.073049	38.739397	37.618878
16.7300	16.7350	118	5	1719.9131	1003.0969	37.993066	38.659548	37.539301
16.7350	16.7400	142	12	1719.4381	1002.2520	37.913278	38.579299	37.459561
16.7400	16.7450	213	12	1718.9629	1001.4069	37.833460	38.499019	37.379790
16.7450	16.7500	239	22	1718.4638	1000.5630	37.753961	38.419956	37.300204
16.7500	16.7550	349	35	1717.9547	999.71966	37.674582	38.341385	37.220682
16.7550	16.7600	433	30	1717.4248	998.86983	37.595171	38.262825	37.141271
16.7600	16.7650	592	25	1716.8156	997.99645	37.515755	38.184425	37.062404
16.7650	16.7700	610	51	1716.2067	997.12341	37.436369	38.106054	36.983567
16.7700	16.7750	676	40	1715.6107	996.27177	37.357092	38.026908	36.906682
16.7750	16.7800	640	42	1715.0199	995.42870	37.277830	37.947409	36.830578
16.7800	16.7850	569	52	1714.4245	994.58926	37.198858	37.868114	36.754981
16.7850	16.7900	499	42	1713.8107	993.76220	37.120858	37.789454	36.681190
16.7900	16.7950	386	33	1713.1971	992.93545	37.042888	37.710825	36.607427
16.7950	16.8000	317	15	1712.6625	992.12061	36.966529	37.632738	36.534176
16.8000	16.8050	203	16	1712.1611	991.31116	36.890881	37.554918	36.461176
16.8050	16.8100	144	18	1711.6832	990.49986	36.815608	37.477638	36.388642
16.8100	16.8150	114	8	1711.2959	989.68114	36.741746	37.402402	36.317871
16.8150	16.8200	92	12	1710.9086	988.86241	36.667884	37.327166	36.247101
16.8200	16.8250	86	9	1710.5172	988.03075	36.595170	37.254042	36.174727
16.8250	16.8300	49	4	1710.1239	987.19359	36.522922	37.181781	36.101677
16.8300	16.8350	60	12	1709.7292	986.35290	36.450555	37.109420	36.028494
16.8350	16.8400	43	9	1709.3294	985.50022	36.377869	37.036801	35.954941
16.8400	16.8450	48	7	1708.9297	984.64755	36.305183	36.964183	35.881388
16.8450	16.8500	46	6	1708.5423	983.80878	36.232509	36.891875	35.809757
16.8500	16.8550	24	10	1708.1601	982.97592	36.159850	36.819707	35.738937
16.8550	16.8600	26	6	1707.7758	982.14505	36.087633	36.747910	35.668015
16.8600	16.8650	31	6	1707.3827	981.32064	36.017007	36.677427	35.596594
16.8650	16.8700	38	12	1706.9894	980.49591	35.946355	36.606918	35.525146
16.8700	16.8750	20	5	1706.6073	979.69056	35.875775	36.537251	35.455644
16.8750	16.8800	30	8	1706.2297	978.89313	35.805214	36.467923	35.386940
16.8800	16.8850	29	10	1705.8509	978.09458	35.734605	36.398237	35.318406
16.8850	16.8900	20	12	1705.4678	977.29287	35.663917	36.327278	35.250630
16.8900	16.8950	32	11	1705.0850	976.49147	35.593257	36.256346	35.182880
16.8950	16.9000	25	9	1704.6943	975.67277	35.522818	36.185885	35.116311
16.9000	16.9050	24	10	1704.3003	974.84655	35.452443	36.115591	35.050208
16.9050	16.9100	40	7	1703.9070	974.01721	35.382318	36.045282	34.983382
16.9100	16.9150	21	5	1703.5156	973.17429	35.313019	35.974782	34.913649
16.9150	16.9200	24	3	1703.1243	972.33170	35.243746	35.904309	34.843943
16.9200	16.9250	32	3	1702.7254	971.47666	35.175149	35.833066	34.772351
16.9250	16.9300	22	23	1702.3236	970.61691	35.106870	35.761542	34.700014
16.9300	16.9350	31	10	1701.9283	969.75602	35.038660	35.690846	34.628234
16.9350	16.9400	22	5	1701.5582	968.89038	34.970687	35.623314	34.558576
16.9400	16.9450	38	9	1701.1880	968.02474	34.902715	35.555782	34.488918
16.9450	16.9500	35	7	1700.8274	967.15926	34.834817	35.489384	34.421876
16.9500	16.9550	33	14	1700.4706	966.29372	34.766939	35.423447	34.355909
16.9550	16.9600	38	7	1700.1129	965.42932	34.699445	35.357255	34.290420
16.9600	16.9650	40	9	1699.7525	964.57093	34.633553	35.290200	34.226888
16.9650	16.9700	46	5	1699.3922	963.71254	34.567660	35.223145	34.163356
16.9700	16.9750	53	9	1699.0334	962.86334	34.500411	35.155487	34.099437
16.9750	16.9800	71	12	1698.6753	962.01810	34.432608	35.087589	34.035368
16.9800	16.9850	74	7	1698.3134	961.17211	34.365029	35.019815	33.971411
16.9850	16.9900	86	8	1697.9367	960.32199	34.298211	34.952416	33.907794
16.9900	16.9950	91	10	1697.5599	959.47155	34.231367	34.884992	33.844153
16.9950	17.0000	115	18	1697.1231	958.30946	34.144074	34.795082	33.759229
17.0000	17.0050	133	12	1696.6613	957.01757	34.048261	34.695806	33.665438
17.0050	17.0100	167	14	1696.1940	955.70317	33.950186	34.594622	33.569652
17.0100	17.0150	194	20	1695.7063	954.30389	33.843534	34.486238	33.466311
17.0150	17.0200	221	21	1695.2188	952.90515	33.736922	34.377896	33.363010
17.0200	17.0250	281	30	1694.7832	951.83615	33.653488	34.293264	33.280383
17.0250	17.0300	385	36	1694.3691	950.90411	33.579680	34.218478	33.206338
17.0300	17.0350	578	47	1693.9612	949.97016	33.505437	34.143451	33.131868
17.0350	17.0400	736	44	1693.5769	949.02707	33.429379	34.067357	33.055617
17.0400	17.0450	837	63	1693.1927	948.08434	33.353350	33.991291	32.979394
17.0450	17.0500	789	50	1692.8621	947.45797	33.296820	33.935274	32.920197
17.0500	17.0550	796	60	1692.5540	946.96369	33.248443	33.887637	32.868122
17.0550	17.0600	762	71	1692.2358	946.43514	33.197191	33.837337	32.811095
17.0600	17.0650	676	59	1691.8781	945.77412	33.134829	33.776738	32.734933
17.0650	17.0700	597	55	1691.5204	945.11310	33.072467	33.716140	32.658772
17.0700	17.0750	594	39	1691.2496	944.89867	33.040044	33.684589	32.621106
17.0750	17.0800	651	43	1691.0149	944.87002	33.020073	33.665120	32.599450
17.0800	17.0850	753	64	1690.7624	944.79533	32.997409	33.642939	32.575785
17.0850	17.0900	772	54	1690.4413	944.54317	32.964399	33.610341	32.544414
17.0900	17.0950	781	58	1690.1201	944.29101	32.931389	33.577743	32.513042
17.0950	17.1000	787	48	1689.7965	943.98253	32.894478	33.540756	32.479144
17.1000	17.1050	686	52	1689.4719	943.65061	32.855946	33.501943	32.444197
17.1050	17.1100	578	53	1689.1272	943.20888	32.810454	33.455870	32.402444
17.1100	17.1150	427	29	1688.7043	942.34302	32.738057	33.381728	32.334385
17.1150	17.1200	351	22	1688.2812	941.47683	32.665632	33.307558	32.266300
17.1200	17.1250	239	16	1687.8751	940.68797	32.597005	33.234207	32.202950
17.1250	17.1300	212	14	1687.4760	939.93121	32.529949	33.161185	32.141562
17.1300	17.1350	147	13	1686.9963	939.26328	32.468699	33.095348	32.085119
17.1350	17.1400	118	20	1686.2063	938.93950	32.429964	33.057363	32.047858
17.1400	17.1450	85	13	1685.4167	938.61584	32.391244	33.019392	32.010612
17.1450	17.1500	87	10	1685.0321	938.62304	32.372638	33.001522	31.992321
17.1500	17.1550	62	12	1684.8164	938.76833	32.362418	32.992033	31.981934
17.1550	17.1600	43	4	1684.6112	938.96285	32.354788	32.986130	31.974552
17.1600	17.1650	54	12	1684.4459	939.34804	32.357158	32.994078	31.978779
17.1650	17.1700	40	8	1684.2806	939.73310	32.359526	33.002023	31.983004
17.1700	17.1750	38	7	1683.9459	939.28651	32.310868	32.957820	31.936688
17.1750	17.1800	44	4	1683.5406	938.49309	32.240940	32.891878	31.869304
17.1800	17.1850	41	14	1683.1077	937.69706	32.171358	32.826383	31.802751
17.1850	17.1900	36	9	1682.5678	936.89064	32.103086	32.762597	31.739389
17.1900	17.1950	48	5	1682.0280	936.08422	32.034814	32.698810	31.676026
17.1950	17.2000	34	8	1681.4400	934.97110	31.951485	32.616930	31.595957
17.2000	17.2050	39	11	1680.8318	933.73002	31.861867	32.527496	31.508913
17.2050	17.2100	40	7	1680.2676	932.71073	31.786499	32.451836	31.434901
17.2100	17.2150	23	5	1679.8743	932.55009	31.766314	32.429515	31.411359
17.2150	17.2200	34	6	1679.4810	932.38946	31.746128	32.407194	31.387818
17.2200	17.2250	27	4	1679.0602	932.02524	31.713520	32.370389	31.352151
17.2250	17.2300	31	10	1678.6280	931.57600	31.675726	32.327536	31.311421
17.2300	17.2350	18	9	1678.2038	931.16894	31.640158	32.287192	31.273069
17.2350	17.2400	23	7	1677.8105	930.92430	31.613138	32.256486	31.243852
17.2400	17.2450	24	5	1677.4170	930.67958	31.586108	32.225769	31.214624
17.2450	17.2500	16	4	1676.9972	930.32458	31.550643	32.188632	31.178916
17.2500	17.2550	15	3	1676.5663	929.92353	31.511652	32.148810	31.140499
17.2550	17.2600	18	4	1676.1092	929.37953	31.464056	32.100223	31.093860
17.2600	17.2650	16	4	1675.5513	928.28315	31.383235	32.017787	31.015472
17.2650	17.2700	13	2	1674.9936	927.18718	31.302445	31.935383	30.937114
17.2700	17.2750	18	4	1674.4251	926.35670	31.239610	31.871022	30.876078
17.2750	17.2800	21	6	1673.8519	925.63682	31.184253	31.814173	30.822255
17.2800	17.2850	18	2	1673.2705	924.88401	31.129797	31.755529	30.766742
17.2850	17.2900	16	7	1672.6565	924.00231	31.078733	31.689822	30.704586
17.2900	17.2950	20	4	1672.0427	923.12094	31.027689	31.624140	30.642454
17.2950	17.3000	18	4	1671.4325	922.53576	30.985270	31.576473	30.597026
17.3000	17.3050	16	3	1670.8242	922.07468	30.946480	31.536361	30.558602
17.3050	17.3100	19	9	1670.1927	921.61008	30.906837	31.495851	30.519489
17.3100	17.3150	26	6	1669.4713	921.13172	30.863872	31.453783	30.477689
17.3150	17.3200	23	3	1668.7499	920.65335	30.820907	31.411715	30.435889
17.3200	17.3250	17	4	1668.0873	920.32547	30.787207	31.378655	30.401329
17.3250	17.3300	21	4	1667.4493	920.06032	30.757367	31.349349	30.369784
17.3300	17.3350	21	4	1666.8158	919.82865	30.729296	31.321685	30.339783
17.3350	17.3400	19	3	1666.2009	919.72700	30.708130	31.300429	30.315818
17.3400	17.3450	15	5	1665.5861	919.62535	30.686963	31.279172	30.291852
17.3450	17.3500	19	9	1664.9588	919.52071	30.664722	31.257459	30.267311
17.3500	17.3550	31	1	1664.3265	919.41485	30.642035	31.235559	30.242532
17.3550	17.3600	26	4	1663.6771	919.19105	30.612903	31.207186	30.211498
17.3600	17.3650	28	4	1662.9608	918.51049	30.558782	31.153724	30.156204
17.3650	17.3700	33	6	1662.2443	917.82968	30.504641	31.100243	30.100890
17.3700	17.3750	33	3	1661.4440	916.74454	30.426585	31.022937	30.023692
17.3750	17.3800	29	5	1660.6085	915.49021	30.338520	30.935661	29.937334
17.3800	17.3850	29	3	1659.7817	914.28460	30.253595	30.851047	29.853809
17.3850	17.3900	40	3	1658.9900	913.26985	30.180977	30.776891	29.781406
17.3900	17.3950	25	1	1658.1985	912.25548	30.108386	30.702764	29.709030
17.3950	17.4000	37	4	1657.5264	911.42891	30.047472	30.640863	29.649303
17.4000	17.4050	36	2	1656.9040	910.68066	29.991422	30.584058	29.594850
17.4050	17.4100	31	3	1656.3075	909.96729	29.937924	30.529698	29.542869
17.4100	17.4150	22	3	1655.8104	909.38792	29.894223	30.484727	29.500388
17.4150	17.4200	35	6	1655.3135	908.80877	29.850539	30.439773	29.457924
17.4200	17.4250	24	4	1654.8126	908.24471	29.808014	30.395548	29.417173
17.4250	17.4300	21	4	1654.3104	907.68727	29.765995	30.351652	29.377161
17.4300	17.4350	38	3	1653.7939	907.04589	29.719259	30.303046	29.332464
17.4350	17.4400	22	7	1653.2217	906.07833	29.654180	30.236127	29.269560
17.4400	17.4450	28	4	1652.6494	905.11076	29.589101	30.169208	29.206655
17.4450	17.4500	32	5	1651.9930	904.04199	29.531056	30.109675	29.149800
17.4500	17.4550	21	2	1651.3013	902.93074	29.475944	30.053222	29.095467
17.4550	17.4600	17	4	1650.5093	901.81501	29.418649	29.994810	29.038943
17.4600	17.4650	29	3	1649.3295	900.68402	29.352996	29.928910	28.974028
17.4650	17.4700	27	5	1648.1497	899.55303	29.287342	29.863009	28.909113
17.4700	17.4750	29	5	1646.9013	898.12484	29.204611	29.778768	28.826247
17.4750	17.4800	33	1	1645.6245	896.57229	29.114736	29.686853	28.735869
17.4800	17.4850	39	6	1644.3455	895.00434	29.023988	29.594237	28.644919
17.4850	17.4900	31	4	1643.0563	893.37437	28.929727	29.498769	28.551614
17.4900	17.4950	38	7	1641.7667	891.74377	28.835430	29.403264	28.458273
17.4950	17.5000	41	5	1640.5114	890.24766	28.749429	29.316068	28.373206
17.5000	17.5050	34	3	1639.2703	888.80761	28.666888	29.232336	28.291588
17.5050	17.5100	25	3	1638.2619	887.52766	28.589532	29.154116	28.215311
17.5100	17.5150	36	5	1638.1593	886.87159	28.532438	29.097429	28.159901
17.5150	17.5200	23	9	1638.0567	886.21578	28.475365	29.040765	28.104512
17.5200	17.5250	28	5	1638.5913	885.74683	28.420601	28.985806	28.050721
17.5250	17.5300	25	2	1639.3931	885.35598	28.366784	28.931542	27.997578
17.5300	17.5350	17	10	1640.2074	885.03318	28.316985	28.881212	27.948385
17.5350	17.5400	20	2	1641.0718	884.97406	28.282694	28.846073	27.914438
17.5400	17.5450	31	2	1641.9359	884.91495	28.248417	28.810947	27.880504
17.5450	17.5500	22	4	1642.6957	884.28640	28.182982	28.744413	27.815347
17.5500	17.5550	22	7	1643.4114	883.41965	28.104531	28.664758	27.737147
17.5550	17.5600	17	2	1643.8806	882.43424	28.022458	28.581730	27.655813
17.5600	17.5650	24	4	1643.3913	880.98688	27.926267	28.485549	27.562263
17.5650	17.5700	26	4	1642.9020	879.53952	27.830077	28.389369	27.468712
17.5700	17.5750	31	3	1642.3944	878.36194	27.748828	28.308723	27.389348
17.5750	17.5800	37	3	1641.8790	877.29709	27.673821	28.234567	27.315909
17.5800	17.5850	28	2	1641.3629	876.22719	27.598349	28.159972	27.242226
17.5850	17.5900	52	1	1640.8448	875.13966	27.521218	28.083809	27.167734
17.5900	17.5950	52	5	1640.3267	874.05214	27.444087	28.007646	27.093243
17.5950	17.6000	78	2	1639.8041	873.05368	27.373458	27.937440	27.024977
17.6000	17.6050	83	6	1639.2798	872.09276	27.305569	27.869746	26.959336
17.6050	17.6100	126	9	1638.7445	871.18210	27.240732	27.805162	26.896643
17.6100	17.6150	128	11	1638.1662	870.46536	27.187655	27.752564	26.845309
17.6150	17.6200	135	7	1637.5877	869.74834	27.134558	27.699946	26.793955
17.6200	17.6250	124	10	1637.0619	868.92311	27.074895	27.640437	26.736174
17.6250	17.6300	135	6	1636.5581	868.05239	27.012470	27.578032	26.675689
17.6300	17.6350	110	2	1636.0651	867.20471	26.951504	27.516719	26.616261
17.6350	17.6400	94	5	1635.6151	866.44797	26.896309	27.459754	26.561036
17.6400	17.6450	75	3	1635.1653	865.69152	26.841135	27.402811	26.505832
17.6450	17.6500	48	2	1634.7034	864.88204	26.782127	27.342717	26.447461
17.6500	17.6550	35	2	1634.2363	864.04998	26.721486	27.281277	26.387739
17.6550	17.6600	46	1	1633.7695	863.16855	26.658053	27.217014	26.325420
17.6600	17.6650	31	2	1633.3028	862.09321	26.583630	27.141639	26.252873
17.6650	17.6700	34	4	1632.8362	861.01828	26.509236	27.066293	26.180355
17.6700	17.6750	17	5	1632.2868	859.62371	26.417349	26.973969	26.090798
17.6750	17.6800	20	3	1631.7029	858.09569	26.318167	26.874566	25.994135
17.6800	17.6850	17	1	1631.1037	856.48346	26.214944	26.771040	25.893306
17.6850	17.6900	11	3	1630.4448	854.54209	26.095912	26.651385	25.776185
17.6900	17.6950	20	3	1629.7860	852.60072	25.976881	26.531730	25.659064
17.6950	17.7000	17	0	1628.8544	850.07642	25.829086	26.382434	25.513163
17.7000	17.7050	22	3	1627.8083	847.30725	25.669204	26.220684	25.355169
17.7050	17.7100	26	6	1626.6976	844.39620	25.520895	26.071003	25.209474
17.7100	17.7150	23	3	1625.3374	840.93800	25.417937	25.968607	25.111959
17.7150	17.7200	20	0	1623.9773	837.47980	25.314979	25.866210	25.014444
17.7200	17.7250	23	0	1622.6737	834.39040	25.280734	25.833625	24.985255
17.7250	17.7300	20	3	1621.3940	831.45666	25.275403	25.830415	24.984818
17.7300	17.7350	22	1	1620.1342	828.61981	25.272564	25.829768	24.986928
17.7350	17.7400	24	5	1618.9499	826.15631	25.279434	25.839108	24.998971
17.7400	17.7450	22	3	1617.7650	823.69187	25.286307	25.848452	25.011018
17.7450	17.7500	27	5	1616.6403	821.51013	25.302157	25.865984	25.031582
17.7500	17.7550	20	5	1615.5405	819.44674	25.321778	25.886957	25.055725
17.7550	17.7600	18	3	1614.4577	817.45944	25.343525	25.910032	25.081955
17.7600	17.7650	24	2	1613.4426	815.77182	25.373532	25.941270	25.116285
17.7650	17.7700	29	3	1612.4279	814.08484	25.403528	25.972497	25.150602
17.7700	17.7750	37	5	1611.3441	811.68425	25.386246	25.956022	25.138326
17.7750	17.7800	26	3	1610.2309	808.98269	25.349078	25.919483	25.106454
17.7800	17.7850	32	4	1609.0641	806.02570	25.296139	25.866894	25.059015
17.7850	17.7900	29	6	1607.6862	802.06569	25.181512	25.751522	24.950691
17.7900	17.7950	18	2	1606.3087	798.10718	25.066928	25.636195	24.842408
17.7950	17.8000	18	2	1605.0212	794.24864	24.952125	25.520884	24.732914
17.8000	17.8050	18	2	1603.7722	790.43423	24.837292	25.405642	24.622971
17.8050	17.8100	14	3	1602.5364	786.57638	24.718517	25.286432	24.509023
17.8100	17.8150	17	1	1601.3517	782.54735	24.584298	25.151675	24.379382
17.8150	17.8200	9	1	1600.1669	778.51833	24.450079	25.016918	24.249742
17.8200	17.8250	16	3	1599.1515	775.24050	24.352655	24.920241	24.157300
17.8250	17.8300	12	4	1598.2070	772.27761	24.270668	24.839540	24.080465
17.8300	17.8350	13	2	1597.3140	769.55468	24.201313	24.771469	24.015893
17.8350	17.8400	15	3	1596.6240	767.77306	24.181378	24.752809	23.999285
17.8400	17.8450	10	0	1595.9339	765.99145	24.161444	24.734148	23.982677
17.8450	17.8500	8	3	1595.4804	765.18741	24.194416	24.767534	24.017420
17.8500	17.8550	3	1	1595.1267	764.79519	24.249663	24.822833	24.073784
17.8550	17.8600	7	2	1594.8379	764.67822	24.319824	24.893260	24.144921
17.8600	17.8650	11	0	1594.8025	765.63591	24.448324	25.022867	24.273856
17.8650	17.8700	5	0	1594.7670	766.59398	24.576874	25.152523	24.402841
17.8700	17.8750	12	1	1594.7286	767.61430	24.708536	25.284889	24.534265
17.8750	17.8800	5	1	1594.6889	768.66099	24.841528	25.418417	24.666735
17.8800	17.8850	9	2	1594.5531	769.11712	24.938793	25.516111	24.764437
17.8850	17.8900	9	3	1594.0416	767.26328	24.896206	25.473536	24.726029
17.8900	17.8950	12	1	1593.5304	765.41013	24.853635	25.430978	24.687637
17.8950	17.9000	10	0	1592.8842	762.66120	24.756758	25.332979	24.595241
17.9000	17.9050	8	2	1592.1808	759.53387	24.636967	25.211588	24.480060
17.9050	17.9100	3	1	1591.5578	756.77338	24.537833	25.111165	24.384998
17.9100	17.9150	8	2	1591.2478	755.44251	24.519308	25.092564	24.368444
17.9150	17.9200	7	0	1590.9379	754.11215	24.500790	25.073971	24.351895
17.9200	17.9250	8	4	1591.1915	755.11628	24.616160	25.191334	24.465868
17.9250	17.9300	7	2	1591.6824	757.10271	24.787835	25.365872	24.634728
17.9300	17.9350	9	0	1592.2183	759.70035	24.997383	25.578572	24.839263
17.9350	17.9400	8	2	1592.9310	764.69193	25.355288	25.940757	25.183551
17.9400	17.9450	7	1	1593.6437	769.68351	25.713193	26.302942	25.527838
17.9450	17.9500	8	4	1593.5798	772.81959	25.965821	26.559648	25.774188
17.9500	17.9550	13	0	1593.1895	775.17586	26.174215	26.772034	25.979390
17.9550	17.9600	8	1	1592.6345	776.57321	26.323154	26.924249	26.126527
17.9600	17.9650	15	0	1591.4370	774.21916	26.239384	26.840936	26.046391
17.9650	17.9700	11	2	1590.2395	771.86510	26.155613	26.757624	25.966255
17.9700	17.9750	7	2	1589.0238	768.30595	25.951707	26.552121	25.767920
17.9750	17.9800	5	1	1587.8005	764.23883	25.697137	26.295090	25.519739
17.9800	17.9850	10	3	1586.7075	760.75516	25.477749	26.073231	25.305891
17.9850	17.9900	9	1	1586.1223	759.54888	25.395673	25.988644	25.226048
17.9900	17.9950	9	2	1585.5369	758.34215	25.313566	25.904025	25.146174
17.9950	18.0000	7	1	1585.8271	761.42017	25.488681	26.078820	25.318386
