# do not edit -- automatically generated Mon Aug 27 17:14:16 2018 from /susfu/kashyap/solar/ISSI/Capella_O7/binned_14t18.pro
# 
# events in wavelength region [14.00,18.00] Ang
# 
# BACKSCAL = 10.0000
#columns are:
#WLOW: wavelength grid bin lower bound [Angstrom]
#WHIGH: wavelength grid bin upper bound [Angstrom]
#SRCCT: counts in bin [ct]
#BKGCT: background counts in bin [ct]
#EA{p|n}_OBSID: effective area for each ObsID [cm^2 ksec]
WLOW	WHIGH	SRCCT	BKGCT	EAn_62435	EAn_01167	EAn_01244	EAn_62410	EAn_01246	EAn_62422	EAn_62423	EAn_01420	EAn_01248	EAn_00058	EAn_01009	EAn_02582	EAn_03479	EAn_03675	EAn_05041	EAn_05956	EAn_06165	EAn_06472	EAn_10600	EAn_11932	EAn_13090	EAn_14240	EAn_18359	EAn_18361	EAn_18363
N	N	N	N	N	N	N	N	N	N	N	N	N	N	N	N	N	N	N	N	N	N	N	N	N	N	N	N	N
14.0000	14.0067	234	100	471.19449	220.50435	176.44635	163.42978	212.54514	164.42469	212.01143	436.98668	1235.2107	490.48887	386.14510	406.90927	401.80325	382.09932	400.18956	418.41784	394.45578	425.18102	397.33400	410.64264	397.84809	401.13363	127.65800	127.52764	127.77563
14.0067	14.0134	258	103	471.20708	220.51024	176.45119	163.43452	212.55052	164.42908	212.01675	437.00368	1235.2794	490.50149	386.16958	406.90482	401.93475	382.12462	400.19726	418.44101	394.47157	425.19165	397.33562	410.66619	397.85117	401.14256	127.66301	127.53247	127.77850
14.0134	14.0201	288	95	471.23657	220.52290	176.46350	163.44635	212.56300	164.43931	212.02966	437.03742	1235.3950	490.53095	386.20635	406.91568	402.08686	382.15911	400.21565	418.48130	394.50058	425.21587	397.35159	410.70334	397.86906	401.16631	127.67255	127.54196	127.78680
14.0201	14.0268	316	96	471.26329	220.53605	176.47303	163.45503	212.57520	164.44868	212.04223	437.06901	1235.4994	490.55889	386.24243	406.92545	402.21697	382.18694	400.23501	418.51837	394.52880	425.23720	397.36578	410.73794	397.88425	401.18731	127.68006	127.55023	127.79357
14.0268	14.0335	339	91	471.28872	220.54943	176.48129	163.46226	212.58727	164.45765	212.05466	437.09963	1235.5985	490.58613	386.27820	406.93472	402.33694	382.21171	400.25482	418.55396	394.55667	425.25719	397.37914	410.77136	397.89818	401.20704	127.68663	127.55796	127.79963
14.0335	14.0402	353	104	471.31160	220.55842	176.49006	163.47077	212.59729	164.46485	212.06384	437.12673	1235.6900	490.60844	386.30882	406.93812	402.39970	382.23582	400.27407	418.58803	394.58108	425.27457	397.38974	410.80175	397.90984	401.22412	127.69401	127.56518	127.80510
14.0402	14.0469	414	107	471.33392	220.56642	176.49894	163.47958	212.60686	164.47167	212.07229	437.15306	1235.7799	490.62965	386.33830	406.94022	402.44977	382.25979	400.29320	418.62175	394.60474	425.29135	397.39972	410.83148	397.92100	401.24062	127.70156	127.57229	127.81044
14.0469	14.0536	433	89	471.35511	220.57803	176.50595	163.48606	212.61595	164.47973	212.08253	437.18567	1235.8627	490.65342	386.36788	406.94517	402.46826	382.28008	400.34101	418.65956	394.62926	425.30901	397.41042	410.86160	397.93271	401.25816	127.70901	127.58000	127.81643
14.0536	14.0603	427	107	471.37740	220.59007	176.51341	163.49298	212.62565	164.48811	212.09323	437.21962	1235.9487	490.67824	386.39817	406.95087	402.48593	382.30102	400.39184	418.69815	394.65461	425.32749	397.42186	410.89272	397.94517	401.27647	127.71669	127.58799	127.82264
14.0603	14.0670	437	97	471.41186	220.60472	176.52659	163.50581	212.64214	164.49937	212.10792	437.26424	1236.0710	490.71272	386.43586	406.96287	402.51127	382.33058	400.45949	418.74286	394.68811	425.35408	397.44070	410.93420	397.96528	401.30222	127.72686	127.59869	127.83071
14.0670	14.0737	430	108	471.44550	220.61955	176.53928	163.51799	212.65773	164.51066	212.12252	437.31006	1236.1952	490.74694	386.47349	406.97548	402.53656	382.36064	400.52676	418.78769	394.72143	425.38069	397.45948	410.97490	397.98539	401.32830	127.73713	127.60914	127.83892
14.0737	14.0804	456	99	471.47623	220.63501	176.55027	163.52794	212.67014	164.52206	212.13677	437.36006	1236.3262	490.78021	386.51092	406.99025	402.56166	382.39239	400.59271	418.83295	394.75409	425.40739	397.47803	411.01287	398.00545	401.35551	127.74770	127.61871	127.84762
14.0804	14.0871	401	104	471.50847	220.65076	176.56166	163.53844	212.68423	164.53360	212.15165	437.41031	1236.4505	490.81917	386.54900	407.00410	402.58889	382.42402	400.65570	418.87478	394.78717	425.43611	397.49716	411.05169	398.02578	401.38225	127.75797	127.62834	127.85629
14.0871	14.0938	369	92	471.54344	220.66701	176.57376	163.54995	212.70135	164.54538	212.16768	437.46102	1236.5626	490.86844	386.58826	407.01630	402.61997	382.45543	400.71335	418.91041	394.82101	425.46851	397.51733	411.09206	398.04659	401.40810	127.76769	127.63809	127.86491
14.0938	14.1005	365	103	471.58220	220.68681	176.58822	163.56361	212.71832	164.55867	212.18462	437.51603	1236.6918	490.93211	386.63009	407.03419	402.65573	382.48882	400.77371	418.95070	394.85891	425.50613	397.54123	411.13725	398.07156	401.43868	127.77872	127.64931	127.87467
14.1005	14.1072	300	110	471.62489	220.71030	176.60512	163.57951	212.73512	164.57353	212.20251	437.57554	1236.8389	491.01078	386.67459	407.05799	402.69638	382.52427	400.83690	418.99582	394.90103	425.54919	397.56902	411.18745	398.10085	401.47418	127.79111	127.66203	127.88562
14.1072	14.1139	344	97	471.60472	220.71101	176.59752	163.57241	212.72664	164.56647	212.19383	437.57343	1236.8157	491.02739	386.67051	407.02702	402.68307	382.51336	400.84642	418.98320	394.88964	425.53495	397.54388	411.18064	398.07694	401.45583	127.78660	127.65850	127.88025
14.1139	14.1206	310	112	471.54670	220.69802	176.57517	163.55148	212.70293	164.54622	212.16915	437.53425	1236.6901	491.00666	386.63719	406.96309	402.63729	382.47456	400.82364	418.93583	394.84604	425.48622	397.48688	411.13954	398.02102	401.40509	127.77191	127.64519	127.86504
14.1206	14.1273	302	103	471.48923	220.68780	176.55369	163.53153	212.67614	164.53059	212.14287	437.49938	1236.5843	490.98758	386.59949	406.89966	402.59192	382.43081	400.79319	418.88898	394.80357	425.43798	397.42969	411.09885	397.96466	401.35421	127.75857	127.63125	127.84843
14.1273	14.1340	286	93	471.43194	220.67848	176.53248	163.51189	212.64838	164.51643	212.11607	437.46588	1236.4848	490.96903	386.56040	406.83639	402.54667	382.38550	400.76029	418.84230	394.76144	425.38990	397.37243	411.05830	397.90815	401.30328	127.74567	127.61710	127.83138
14.1340	14.1407	327	79	471.37316	220.66885	176.51089	163.49134	212.62310	164.50541	212.09510	437.42851	1236.3802	490.94180	386.52445	406.77226	402.50123	382.34099	400.73469	418.79453	394.71982	425.34153	397.31552	411.02081	397.85209	401.25209	127.73080	127.60222	127.81590
14.1407	14.1474	314	93	471.31418	220.65911	176.48961	163.47070	212.59805	164.49514	212.07514	437.39064	1236.2747	490.91324	386.48879	406.70793	402.45570	382.29663	400.70953	418.74661	394.67819	425.29308	397.25859	410.98354	397.79603	401.20088	127.71569	127.58724	127.80057
14.1474	14.1541	383	105	471.25454	220.64629	176.48089	163.45090	212.57063	164.49804	212.06626	437.35126	1236.1546	490.87427	386.44984	406.64064	402.40795	382.25439	400.66888	418.69799	394.63428	425.24311	397.19978	410.94121	397.73812	401.14968	127.70035	127.57197	127.78357
14.1541	14.1608	354	90	471.19474	220.63283	176.47341	163.43089	212.54313	164.49889	212.05788	437.31225	1236.0377	490.83529	386.41092	406.57333	402.36028	382.21129	400.62973	418.64922	394.59001	425.19300	397.14085	410.89951	397.68005	401.09811	127.68504	127.55691	127.76657
14.1608	14.1675	403	104	471.13411	220.61602	176.47231	163.40978	212.51517	164.48906	212.05213	437.27517	1235.9379	490.79624	386.37221	406.50592	402.31307	382.16371	400.59837	418.59964	394.54393	425.14224	397.08128	410.86113	397.62118	401.04463	127.66996	127.54292	127.74963
14.1675	14.1742	481	98	471.07815	220.60104	176.47085	163.39220	212.49031	164.48014	212.04663	437.24054	1235.8448	490.76012	386.33635	406.44261	402.26929	382.11998	400.56907	418.55402	394.50250	425.09531	397.02508	410.82591	397.56607	400.99524	127.65591	127.52962	127.73406
14.1742	14.1809	581	123	471.03328	220.59043	176.46856	163.38304	212.47279	164.47338	212.04169	437.21172	1235.7674	490.73092	386.30727	406.38899	402.23364	382.08541	400.54469	418.51783	394.47209	425.05747	396.97686	410.79821	397.51986	400.95555	127.64431	127.51793	127.72172
14.1809	14.1876	676	113	470.98714	220.57840	176.46453	163.37758	212.45763	164.46565	212.03694	437.18207	1235.6870	490.70088	386.27868	406.33455	402.19793	382.05205	400.51919	418.48151	394.44031	425.01973	396.92926	410.76930	397.47355	400.91532	127.63309	127.50641	127.70879
14.1876	14.1943	810	116	470.93932	220.56450	176.45818	163.37700	212.44558	164.45664	212.03244	437.15135	1235.6026	490.66974	386.25074	406.27903	402.16215	382.02030	400.49222	418.44504	394.40673	424.98213	396.88248	410.73882	397.42710	400.87437	127.62237	127.49510	127.69508
14.1943	14.2010	1069	129	470.89332	220.55149	176.45083	163.37917	212.43888	164.44780	212.02293	437.11998	1235.5092	490.63952	386.22386	406.22283	402.12659	381.98713	400.46782	418.40840	394.37359	424.94436	396.83510	410.71189	397.38066	400.83378	127.61120	127.48332	127.68260
14.2010	14.2077	1272	126	470.84870	220.53917	176.44270	163.38346	212.43631	164.43909	212.00956	437.08810	1235.4088	490.61001	386.19780	406.16609	402.09121	381.95289	400.44540	418.37163	394.34077	424.90645	396.78726	410.68770	397.33421	400.79345	127.59968	127.47116	127.67106
14.2077	14.2144	1496	159	470.80292	220.52584	176.43476	163.37743	212.44204	164.42955	211.99850	437.05687	1235.3049	490.57920	386.17179	406.11080	402.05619	381.91775	400.41835	418.33566	394.30869	424.86892	396.74039	410.66137	397.28821	400.75326	127.58825	127.46068	127.65758
14.2144	14.2211	1614	132	470.75664	220.51208	176.42690	163.36695	212.45135	164.41965	211.98845	437.02594	1235.1995	490.54784	386.14581	406.05612	402.02133	381.88222	400.38930	418.30004	394.27693	424.83157	396.69393	410.63412	397.24240	400.71314	127.57684	127.45092	127.64327
14.2211	14.2278	1523	114	470.73459	220.50857	176.42547	163.36818	212.45412	164.41831	211.98831	437.01542	1235.1524	490.53971	386.14013	406.02066	402.00633	381.86900	400.38695	418.28387	394.26477	424.81551	396.66680	410.62957	397.21655	400.69286	127.57218	127.44621	127.63832
14.2278	14.2345	1377	140	470.71737	220.50712	176.42533	163.37175	212.45559	164.41868	211.99016	437.00899	1235.1170	490.53622	386.13851	405.98903	401.99528	381.86024	400.38994	418.27159	394.25653	424.80371	396.64354	410.62955	397.19469	400.67653	127.56887	127.44252	127.63523
14.2345	14.2412	1228	137	470.70040	220.50658	176.42499	163.37349	212.45948	164.41887	211.98994	437.00198	1235.0787	490.53601	386.13613	405.95787	401.98440	381.85010	400.38391	418.26033	394.24732	424.79148	396.62015	410.63424	397.17276	400.66228	127.56477	127.43869	127.62897
14.2412	14.2479	995	140	470.68346	220.50598	176.42473	163.37506	212.46319	164.41896	211.98964	436.99503	1235.0422	490.53558	386.13384	405.92681	401.97352	381.83965	400.37814	418.24909	394.23834	424.77928	396.59675	410.63862	397.15080	400.64794	127.56079	127.43486	127.62287
14.2479	14.2546	908	104	470.66675	220.50468	176.42530	163.37560	212.46467	164.41818	211.98915	436.98873	1235.0220	490.53223	386.13267	405.89651	401.96256	381.82693	400.37731	418.23780	394.23170	424.76756	396.57335	410.63886	397.12862	400.63223	127.55812	127.43099	127.61911
14.2546	14.2613	859	105	470.64960	220.50339	176.42545	163.37589	212.46637	164.41727	211.98896	436.98233	1234.9980	490.52845	386.13246	405.86517	401.95163	381.81502	400.37447	418.22623	394.22447	424.75576	396.54995	410.64122	397.10638	400.61664	127.55539	127.42729	127.61486
14.2613	14.2680	739	109	470.63106	220.50209	176.42420	163.37540	212.46879	164.41594	211.98976	436.97558	1234.9620	490.52325	386.13531	405.83050	401.94080	381.80573	400.36517	418.21373	394.21534	424.74371	396.52655	410.65038	397.08399	400.60146	127.55248	127.42415	127.60900
14.2680	14.2747	712	117	470.61494	220.50106	176.42350	163.37522	212.46951	164.41480	211.98975	436.96854	1234.9261	490.51953	386.13819	405.79729	401.92980	381.79639	400.35862	418.20167	394.20718	424.73169	396.50333	410.65978	397.06150	400.58593	127.54898	127.42105	127.60354
14.2747	14.2814	708	128	470.60291	220.50046	176.42373	163.37554	212.46737	164.41397	211.98838	436.96102	1234.8905	490.51832	386.14113	405.76651	401.91852	381.78696	400.35676	418.19035	394.20066	424.71974	396.48038	410.66956	397.03882	400.56979	127.54449	127.41798	127.59879
14.2814	14.2881	572	104	470.59210	220.49521	176.42120	163.37268	212.46438	164.41084	211.98426	436.94809	1234.8392	490.50791	386.13756	405.72888	401.90245	381.77044	400.34577	418.17398	394.18830	424.70266	396.45248	410.67847	397.01158	400.54979	127.53882	127.41292	127.59253
14.2881	14.2948	567	123	470.58250	220.48539	176.41599	163.36668	212.46056	164.40545	211.97744	436.92985	1234.7724	490.48848	386.12760	405.68454	401.88169	381.74695	400.32582	418.15267	394.17021	424.68055	396.41975	410.68652	396.97985	400.52601	127.53199	127.40591	127.58478
14.2948	14.3015	449	103	470.60344	220.48994	176.41785	163.37006	212.46623	164.40798	211.98138	436.93377	1234.7684	490.49655	386.13133	405.66193	401.88078	381.74624	400.32950	418.15110	394.17353	424.67869	396.40612	410.71441	396.96769	400.52116	127.53189	127.40577	127.58321
14.3015	14.3082	376	105	470.64162	220.50261	176.42371	163.37872	212.47727	164.41498	211.99139	436.95020	1234.7999	490.52013	386.14280	405.65159	401.89107	381.75838	400.34651	418.16068	394.18894	424.68826	396.40327	410.75352	396.96658	400.52699	127.53558	127.40952	127.58511
14.3082	14.3149	321	85	470.69137	220.51098	176.43362	163.38719	212.48609	164.42250	212.00106	436.96575	1234.8351	490.54152	386.15349	405.63938	401.90069	381.76794	400.35635	418.17186	394.21091	424.69738	396.40042	410.78584	396.96487	400.53189	127.53885	127.41234	127.58658
14.3149	14.3216	319	96	470.74450	220.51808	176.44470	163.39560	212.49427	164.43018	212.01063	436.98103	1234.8713	490.56226	386.16396	405.62664	401.91011	381.77675	400.36409	418.18352	394.23480	424.70637	396.39756	410.81619	396.96299	400.53651	127.54199	127.41488	127.58793
14.3216	14.3283	295	96	470.78136	220.52843	176.45015	163.40140	212.50632	164.43632	212.02010	436.99643	1234.9013	490.58146	386.17339	405.61463	401.91848	381.78407	400.37305	418.19305	394.25794	424.71372	396.39501	410.83700	396.96139	400.54256	127.54560	127.41898	127.59002
14.3283	14.3350	317	97	470.81939	220.54033	176.45622	163.40807	212.51981	164.44333	212.03075	437.01427	1234.9375	490.60347	386.18505	405.60495	401.92888	381.79354	400.38441	418.20479	394.28338	424.72312	396.39473	410.85895	396.96210	400.55104	127.54998	127.42391	127.59289
14.3350	14.3417	330	85	470.92147	220.58030	176.48954	163.44039	212.55722	164.47363	212.06883	437.08782	1235.1334	490.69307	386.24981	405.64690	401.98802	381.85558	400.44761	418.27163	394.36318	424.78292	396.44558	410.92884	397.01495	400.61157	127.57101	127.44395	127.61153
14.3417	14.3484	337	93	471.02638	220.62203	176.52421	163.47335	212.59654	164.50533	212.10904	437.16631	1235.3421	490.78722	386.31797	405.69292	402.05100	381.92161	400.51129	418.34257	394.44871	424.84700	396.50042	411.00181	397.07160	400.67601	127.59322	127.46527	127.63166
14.3484	14.3551	416	98	471.14463	220.67207	176.56518	163.50933	212.64476	164.54354	212.15925	437.26799	1235.6114	490.90273	386.40205	405.75800	402.13192	382.00630	400.57728	418.43270	394.56098	424.93110	396.57390	411.08914	397.14606	400.75877	127.62102	127.49260	127.65880
14.3551	14.3618	510	97	471.26225	220.72261	176.60567	163.54618	212.69401	164.58119	212.20813	437.36713	1235.8772	491.01601	386.48452	405.82095	402.21192	382.08828	400.65019	418.52170	394.67162	425.01430	396.64595	411.17359	397.21919	400.83954	127.64827	127.51979	127.68509
14.3618	14.3685	559	109	471.37843	220.77428	176.64509	163.58494	212.74556	164.61758	212.25406	437.46061	1236.1350	491.12429	386.56339	405.87914	402.28989	382.16422	400.73845	418.60816	394.77861	425.09549	396.71482	411.25160	397.28932	400.91589	127.67427	127.54668	127.70949
14.3685	14.3752	602	122	471.48844	220.82326	176.68414	163.62151	212.79227	164.65357	212.30041	437.55318	1236.3830	491.23184	386.64098	405.93537	402.36806	382.23985	400.81179	418.69190	394.88026	425.17656	396.78176	411.32862	397.35723	400.98936	127.70023	127.57241	127.73377
14.3752	14.3819	652	123	471.59078	220.86891	176.72275	163.65538	212.83296	164.68909	212.34728	437.64466	1236.6186	491.33851	386.71701	405.98918	402.44652	382.31510	400.86655	418.77229	394.97528	425.25749	396.84632	411.40440	397.42239	401.05925	127.72616	127.59672	127.75792
14.3819	14.3886	696	93	471.69493	220.91520	176.75980	163.68900	212.87898	164.72409	212.39226	437.73466	1236.8562	491.44279	386.79207	406.04166	402.52442	382.39023	400.92727	418.85281	395.06993	425.33824	396.91078	411.47926	397.48770	401.12907	127.75198	127.62168	127.78138
14.3886	14.3953	740	123	471.80038	220.96195	176.79572	163.72246	212.92885	164.75870	212.43586	437.82359	1237.0951	491.54531	386.86642	406.09319	402.60191	382.46527	400.99230	418.93342	395.16429	425.41883	396.97515	411.55343	397.55312	401.19885	127.77772	127.64711	127.80432
14.3953	14.4020	682	122	471.90769	221.01135	176.83441	163.75926	212.97467	164.79514	212.48269	437.91946	1237.3430	491.65462	386.94519	406.14923	402.68253	382.54138	401.05820	419.01861	395.26006	425.50311	397.04222	411.63062	397.62148	401.27214	127.80475	127.67287	127.82874
14.4020	14.4087	653	99	472.01576	221.06182	176.87421	163.79741	213.01887	164.83231	212.53081	438.01814	1237.5946	491.76666	387.02573	406.20709	402.76440	382.61793	401.12447	419.10563	395.35641	425.58887	397.11038	411.70902	397.69102	401.34684	127.83231	127.69878	127.85376
14.4087	14.4154	565	126	472.13232	221.11558	176.91776	163.83712	213.07089	164.87206	212.58191	438.12470	1237.8838	491.88623	387.11264	406.26840	402.85559	382.70442	401.20907	419.19915	395.45911	425.68384	397.18722	411.79770	397.76935	401.43139	127.86340	127.72771	127.88184
14.4154	14.4221	535	107	472.25038	221.16991	176.96197	163.87710	213.12430	164.91226	212.63353	438.23266	1238.1797	492.00712	387.20069	406.33032	402.94843	382.79268	401.29695	419.29382	395.56294	425.78044	397.26562	411.88820	397.84923	401.51769	127.89512	127.75718	127.91046
14.4221	14.4288	546	101	472.38971	221.23421	177.01051	163.92365	213.18540	164.95981	212.69448	438.35477	1238.5043	492.15348	387.30463	406.40503	403.05538	382.89543	401.41581	419.40734	395.68277	425.89225	397.35842	411.99268	397.94368	401.61845	127.93061	127.79167	127.94252
14.4288	14.4355	509	102	472.52905	221.29868	177.05974	163.97045	213.24638	165.00748	212.75561	438.47705	1238.8300	492.30033	387.40881	406.47917	403.16269	382.99822	401.53529	419.52081	395.80274	426.00435	397.45146	412.09747	398.03861	401.71934	127.96616	127.82627	127.97474
14.4355	14.4422	459	100	472.66537	221.36302	177.11344	164.01814	213.30546	165.05501	212.81681	438.59850	1239.1584	492.44722	387.51246	406.54714	403.27064	383.09925	401.65518	419.63120	395.92149	426.11650	397.54419	412.20256	398.13513	401.81912	128.00156	127.86089	128.00765
14.4422	14.4489	417	96	472.80156	221.42815	177.16575	164.06489	213.36539	165.10243	212.87766	438.71972	1239.4864	492.59471	387.61619	406.61489	403.37821	383.20074	401.77524	419.74230	396.03956	426.22858	397.63693	412.30776	398.23375	401.91934	128.03808	127.89517	128.04038
14.4489	14.4556	409	106	472.93744	221.49565	177.21388	164.10889	213.42787	165.14958	212.93748	438.84034	1239.8129	492.74409	387.72022	406.68201	403.48471	383.30362	401.89590	419.85552	396.15564	426.34053	397.72970	412.41336	398.33868	402.02092	128.07795	127.92844	128.07252
14.4556	14.4623	390	111	473.07228	221.56141	177.26417	164.15543	213.48872	165.19725	212.99823	438.96020	1240.1385	492.89134	387.82407	406.74735	403.59136	383.40618	402.01661	419.96749	396.27324	426.45226	397.82235	412.51841	398.44921	402.12243	128.11642	127.96245	128.10441
14.4623	14.4690	405	112	473.20541	221.62437	177.31786	164.20599	213.54695	165.24574	213.06045	439.07883	1240.4626	493.03514	387.92760	406.80983	403.69821	383.50821	402.13737	420.07743	396.39322	426.56360	397.91479	412.62257	398.56865	402.22380	128.15266	127.99766	128.13589
14.4690	14.4757	382	99	473.34103	221.68923	177.36951	164.25321	213.60649	165.29462	213.12262	439.19722	1240.7942	493.17271	388.03078	406.88152	403.80519	383.61005	402.25731	420.18833	396.51181	426.67488	398.00716	412.72697	398.69291	402.32566	128.19020	128.03219	128.16800
14.4757	14.4824	365	94	473.47897	221.75585	177.41926	164.29734	213.66727	165.34386	213.18474	439.31539	1241.1328	493.30452	388.13363	406.96174	403.91228	383.71174	402.37651	420.30012	396.62913	426.78611	398.09948	412.83161	398.82163	402.42798	128.22897	128.06608	128.20071
14.4824	14.4891	371	100	473.66657	221.84307	177.49204	164.36291	213.75295	165.41269	213.27252	439.48292	1241.6028	493.49283	388.28002	407.09460	404.06443	383.85655	402.54142	420.45852	396.79083	426.94567	398.23590	412.98181	398.99360	402.57531	128.28096	128.11506	128.24643
14.4891	14.4958	359	88	473.88043	221.94118	177.57701	164.43982	213.85181	165.49187	213.37387	439.67654	1242.1422	493.71101	388.44943	407.25531	404.24040	384.02418	402.73051	420.64157	396.97599	427.13078	398.39564	413.15611	399.18843	402.74643	128.33995	128.17201	128.29902
14.4958	14.5025	336	89	474.10852	222.04497	177.66459	164.51845	213.95399	165.57153	213.47877	439.87969	1242.7146	493.93956	388.62858	407.42943	404.42632	384.20176	402.92927	420.83519	397.17112	427.32547	398.56368	413.34058	399.39066	402.92738	128.40129	128.23059	128.35655
14.5025	14.5092	327	101	474.34048	222.15030	177.75288	164.59756	214.05707	165.65133	213.58464	440.08544	1243.2959	494.17093	388.81037	407.60718	404.61494	384.38206	403.13067	421.03169	397.36895	427.52277	398.73398	413.52781	399.59490	403.11099	128.46328	128.28963	128.41542
14.5092	14.5159	341	106	474.56977	222.25409	177.84033	164.68086	214.16458	165.72902	213.68953	440.29259	1243.8694	494.40195	388.99186	407.78521	404.80352	384.56171	403.33177	421.22854	397.56611	427.72038	398.90350	413.71729	399.79579	403.29528	128.52631	128.34977	128.47297
14.5159	14.5226	373	115	474.79879	222.35780	177.92750	164.76443	214.27226	165.80655	213.79408	440.49978	1244.4425	494.63300	389.17324	407.96319	404.99204	384.74118	403.53276	421.42534	397.76315	427.91794	399.07293	413.90686	399.99591	403.47961	128.58942	128.41014	128.53039
14.5226	14.5293	418	92	475.02749	222.46264	178.01123	164.84682	214.37679	165.88465	213.89447	440.70614	1245.0203	494.86575	389.35356	408.14038	405.18019	384.91883	403.73287	421.62135	397.95963	428.11482	399.24215	414.09515	400.18832	403.66428	128.65251	128.47279	128.58771
14.5293	14.5360	502	118	475.25671	222.56694	178.09496	164.92896	214.48210	165.96245	213.99483	440.91203	1245.6001	495.09796	389.53407	408.31769	405.36826	385.09775	403.93321	421.81750	398.15651	428.31174	399.41121	414.28324	400.38084	403.84880	128.71539	128.53521	128.64538
14.5360	14.5427	546	104	475.48800	222.66887	178.17857	165.01004	214.59069	166.03895	214.09498	441.11581	1246.1881	495.32769	389.71533	408.49543	405.55586	385.28189	404.13444	422.01418	398.35494	428.50869	399.57952	414.47033	400.57371	404.03264	128.77730	128.59663	128.70452
14.5427	14.5494	657	100	475.71695	222.77159	178.26121	165.09002	214.69797	166.11548	214.19436	441.31946	1246.7694	495.55685	389.89586	408.67166	405.74246	385.46224	404.33443	422.20934	398.55246	428.70429	399.74676	414.65652	400.76456	404.21606	128.83906	128.65788	128.76261
14.5494	14.5561	675	101	475.94113	222.87596	178.34189	165.16776	214.80259	166.19208	214.29216	441.52291	1247.3368	495.78489	390.07491	408.84483	405.92703	385.63477	404.53191	422.40145	398.74816	428.89712	399.91184	414.84089	400.95129	404.39869	128.90052	128.71880	128.81855
14.5561	14.5628	628	110	476.16371	222.97687	178.42249	165.24388	214.90340	166.26742	214.38900	441.72174	1247.8954	496.00829	390.25109	409.01609	406.10904	385.80705	404.72685	422.59158	398.93999	429.08712	400.07493	415.02195	401.13535	404.57845	128.96079	128.78009	128.87477
14.5628	14.5695	639	115	476.38434	223.07368	178.50299	165.31812	214.99973	166.34126	214.48470	441.91509	1248.4434	496.22620	390.42387	409.18510	406.28801	385.97902	404.91877	422.77936	399.12727	429.27376	400.23566	415.19910	401.31623	404.75479	129.01966	128.84180	128.93131
14.5695	14.5762	584	100	476.60396	223.17290	178.58174	165.39128	215.09585	166.41454	214.57987	442.11073	1248.9899	496.44579	390.59608	409.35306	406.46695	386.15107	405.11000	422.96562	399.31618	429.46056	400.39610	415.37730	401.49559	404.93146	129.07882	128.90264	128.98673
14.5762	14.5829	485	84	476.82290	223.27376	178.65929	165.46372	215.19184	166.48744	214.67470	442.30794	1249.5355	496.66655	390.76792	409.52034	406.64588	386.32318	405.30079	423.15086	399.50622	429.64747	400.55638	415.55623	401.67391	405.10837	129.13819	128.96291	129.04139
14.5829	14.5896	479	83	477.04249	223.37077	178.73924	165.53760	215.28739	166.56142	214.76950	442.50323	1250.0881	496.88492	390.94000	409.68828	406.82440	386.49796	405.49273	423.33747	399.69670	429.83353	400.71701	415.73527	401.85343	405.28616	129.19673	129.02365	129.09669
14.5896	14.5963	399	121	477.26228	223.46632	178.82007	165.61201	215.38277	166.63579	214.86427	442.69776	1250.6433	497.10234	391.11214	409.85644	407.00272	386.67370	405.68506	423.52455	399.88731	430.01923	400.87774	415.91432	402.03335	405.46424	129.25495	129.08457	129.15223
14.5963	14.6030	378	113	477.48425	223.56714	178.89855	165.68457	215.47710	166.70936	214.95903	442.89417	1251.2026	497.32328	391.28518	410.02433	407.18224	386.85809	405.87613	423.71350	400.08107	430.20700	401.03932	416.09241	402.21190	405.64296	129.31595	129.14477	129.20823
14.6030	14.6097	301	112	477.70660	223.66882	178.97667	165.75686	215.57126	166.78282	215.05379	443.09090	1251.7626	497.54480	391.45839	410.19220	407.36197	387.04389	406.06704	423.90277	400.27536	430.39512	401.20105	416.27038	402.39026	405.82181	129.37740	129.20488	129.26432
14.6097	14.6164	324	96	477.93448	223.77027	179.06025	165.83413	215.67241	166.86036	215.15377	443.29442	1252.3335	497.77420	391.63910	410.36530	407.54821	387.23937	406.27086	424.09706	400.46923	430.58947	401.36599	416.45663	402.57511	406.00737	129.43880	129.26715	129.32229
14.6164	14.6231	293	91	478.16456	223.87266	179.14408	165.91172	215.77355	166.93812	215.25397	443.49940	1252.9084	498.00487	391.82062	410.53951	407.73559	387.43542	406.47505	424.29268	400.66402	430.78496	401.53220	416.64414	402.76069	406.19416	129.50099	129.32976	129.38071
14.6231	14.6298	267	91	478.40938	223.98141	179.22959	165.99135	215.87462	167.01736	215.35558	443.71407	1253.5106	498.24403	392.00747	410.72121	407.93060	387.63528	406.68153	424.49724	400.86508	430.98811	401.70694	416.83999	402.95107	406.38920	129.56847	129.39462	129.44212
14.6298	14.6365	262	95	478.64337	224.08477	179.31099	166.06693	215.97227	167.09328	215.45361	443.91823	1254.0847	498.47222	392.18598	410.89344	408.11713	387.82393	406.88096	424.69331	401.05884	431.18239	401.87234	417.02602	403.13331	406.57564	129.63191	129.45672	129.50023
14.6365	14.6432	230	94	478.84730	224.17324	179.38099	166.13129	216.06042	167.15995	215.54173	444.09326	1254.5809	498.66999	392.34137	411.03939	408.28014	387.98155	407.06083	424.86583	401.23236	431.35204	402.01185	417.18484	403.29300	406.73821	129.68417	129.51113	129.54922
14.6432	14.6499	253	101	479.04301	224.25737	179.44852	166.19382	216.14239	167.22312	215.62370	444.26071	1255.0563	498.85807	392.48910	411.17856	408.43498	388.13353	407.23128	425.03162	401.40034	431.51195	402.14435	417.33750	403.44328	406.89381	129.73457	129.56298	129.59656
14.6499	14.6566	250	94	479.22645	224.33501	179.51236	166.25364	216.21511	167.28108	215.69643	444.41683	1255.5008	499.03166	392.62537	411.30759	408.57759	388.27710	407.38765	425.18736	401.56003	431.65729	402.26638	417.48096	403.57950	407.03900	129.78220	129.61098	129.64144
14.6566	14.6633	237	97	479.40643	224.41356	179.57523	166.31177	216.29166	167.33936	215.77195	444.57310	1255.9432	499.20629	392.76352	411.43622	408.72061	388.42199	407.54498	425.34314	401.72191	431.80115	402.38881	417.62277	403.71712	407.18481	129.83058	129.65840	129.68621
14.6633	14.6700	307	91	479.58337	224.49288	179.63722	166.36842	216.37153	167.39793	215.84987	444.72949	1256.3836	499.38179	392.90327	411.56448	408.86393	388.56798	407.70310	425.49891	401.88566	431.94366	402.51155	417.76311	403.85591	407.33114	129.87958	129.70529	129.73087
14.6700	14.6767	346	105	479.75476	224.57041	179.70066	166.42674	216.44648	167.45635	215.92502	444.88558	1256.8193	499.55521	393.03990	411.69197	409.00644	388.71096	407.86008	425.66084	402.04752	432.08556	402.63311	417.90363	403.99420	407.47780	129.92776	129.75316	129.77554
14.6767	14.6834	329	93	479.92341	224.64705	179.76483	166.48591	216.51901	167.51470	215.99880	445.04157	1257.2527	499.72762	393.17499	411.81908	409.14857	388.85246	408.01653	425.82586	402.20847	432.22717	402.75411	418.04426	404.13226	407.62466	129.97554	129.80152	129.82022
14.6834	14.6901	342	92	480.08441	224.72192	179.82389	166.54042	216.59198	167.57080	216.07091	445.19104	1257.6695	499.89541	393.30685	411.94072	409.28422	388.98804	408.16589	425.98375	402.35774	432.36507	402.86959	418.17966	404.26314	407.77053	130.02509	129.84666	129.86285
14.6901	14.6968	322	92	480.24350	224.79635	179.88169	166.59377	216.66504	167.62634	216.14259	445.33888	1258.0822	500.06203	393.43789	412.06100	409.41825	389.12214	408.31349	426.13987	402.50413	432.50203	402.98370	418.31375	404.39225	407.91613	130.07508	129.89101	129.90497
14.6968	14.7035	300	98	480.39106	224.86444	179.93568	166.64575	216.73041	167.67688	216.20772	445.47581	1258.4735	500.21240	393.55540	412.16988	409.54184	389.24863	408.45345	426.27912	402.63921	432.63351	403.08633	418.43453	404.51020	408.05397	130.11701	129.93315	129.94488
14.7035	14.7102	290	92	480.53585	224.93125	179.98880	166.69683	216.79447	167.72654	216.27163	445.61023	1258.8577	500.35996	393.67081	412.27648	409.66325	389.37326	408.59111	426.41576	402.77126	432.76318	403.18665	418.55297	404.62581	408.19023	130.15817	129.97460	129.98403
14.7102	14.7169	277	81	480.65466	224.98683	180.03401	166.73731	216.84821	167.76896	216.32551	445.72124	1259.1670	500.48491	393.77054	412.36307	409.76510	389.47997	408.70540	426.53303	402.87349	432.87392	403.26678	418.65236	404.72062	408.31240	130.19635	130.00901	130.01507
14.7169	14.7236	235	108	480.77379	225.04258	180.07907	166.77822	216.90205	167.81100	216.37942	445.83256	1259.4772	500.60954	393.86960	412.44979	409.86696	389.58511	408.82058	426.65003	402.97428	432.98461	403.34705	418.75165	404.81580	408.43316	130.23416	130.04306	130.04669
14.7236	14.7303	232	76	480.89424	225.09896	180.12354	166.82078	216.95634	167.85158	216.43348	445.94511	1259.7915	500.73302	393.96614	412.53700	409.96886	389.68421	408.93927	426.76609	403.06961	433.09514	403.42792	418.85062	404.91245	408.54862	130.27061	130.07573	130.08049
14.7303	14.7370	282	97	481.01410	225.15539	180.16825	166.86277	217.01026	167.89294	216.48754	446.05798	1260.1050	500.85703	394.06351	412.62391	410.07048	389.78501	409.05576	426.88125	403.16473	433.20563	403.50849	418.94985	405.00839	408.66023	130.30743	130.11011	130.11330
14.7370	14.7437	249	92	481.13277	225.21190	180.21339	166.90363	217.06340	167.93578	216.54158	446.17142	1260.4166	500.98203	394.16243	412.71021	410.17153	389.88907	409.16792	426.99461	403.25943	433.31601	403.58842	419.04954	405.10295	408.76429	130.34496	130.14780	130.14417
14.7437	14.7504	227	107	481.25136	225.26722	180.25824	166.94462	217.11695	167.97736	216.59491	446.28559	1260.7380	501.10645	394.26000	412.79667	410.27263	389.99369	409.28234	427.10793	403.35387	433.42632	403.66837	419.14999	405.19715	408.86686	130.38400	130.18340	130.17630
14.7504	14.7571	265	103	481.36985	225.32124	180.30276	166.98575	217.17095	168.01756	216.64745	446.40060	1261.0703	501.23024	394.35608	412.88332	410.37380	390.09894	409.39928	427.22123	403.44803	433.53658	403.74835	419.25130	405.29097	408.96779	130.42472	130.21668	130.20982
14.7571	14.7638	267	79	481.47105	225.36786	180.33983	167.02073	217.21639	168.05233	216.69240	446.49845	1261.3580	501.33457	394.43834	412.95278	410.45846	390.18764	409.49905	427.31851	403.52527	433.62937	403.81194	419.33410	405.36747	409.04873	130.45727	130.24547	130.23885
14.7638	14.7705	257	87	481.56111	225.40970	180.37209	167.05175	217.25632	168.08360	216.73247	446.58526	1261.6169	501.42637	394.51171	413.01116	410.53248	390.26569	409.58776	427.40549	403.59163	433.71091	403.86498	419.40500	405.43284	409.11681	130.48457	130.27136	130.26499
14.7705	14.7772	243	109	481.65032	225.45075	180.40582	167.08253	217.29619	168.11454	216.77217	446.67334	1261.8891	501.51772	394.58484	413.07191	410.60788	390.34473	409.67763	427.49180	403.66055	433.79405	403.91837	419.47733	405.49989	409.18351	130.51571	130.29845	130.29015
14.7772	14.7839	251	83	481.73925	225.49151	180.44005	167.11323	217.33603	168.14537	216.81174	446.76188	1262.1659	501.60893	394.65790	413.13349	410.68377	390.42413	409.76791	427.57791	403.73035	433.87774	403.97190	419.55017	405.56753	409.24975	130.54820	130.32596	130.31498
14.7839	14.7906	216	98	481.82732	225.53336	180.47165	167.14336	217.37564	168.17616	216.85152	446.84644	1262.4429	501.70058	394.73066	413.19270	410.75702	390.49988	409.85669	427.66394	403.79686	433.95920	404.02281	419.62355	405.63240	409.31274	130.57597	130.35243	130.34071
14.7906	14.7973	195	94	481.91379	225.57465	180.50239	167.17292	217.41455	168.20645	216.89065	446.92912	1262.7158	501.79077	394.80218	413.25034	410.82868	390.57404	409.94401	427.74867	403.86171	434.03905	404.07213	419.69571	405.69563	409.37404	130.60272	130.37836	130.36619
14.7973	14.8040	204	109	481.87692	225.55584	180.49095	167.16148	217.39722	168.19421	216.87396	446.90107	1262.6397	501.75376	394.77280	413.20383	410.79786	390.55706	409.92732	427.72455	403.82572	434.01019	404.01947	419.65898	405.65419	409.33166	130.59799	130.37148	130.36062
14.8040	14.8107	173	100	481.84185	225.53833	180.47946	167.15022	217.38075	168.18224	216.85791	446.87383	1262.5700	501.71817	394.74470	413.15815	410.76806	390.54086	409.91190	427.70159	403.79020	433.98251	403.96755	419.62373	405.61349	409.29051	130.59342	130.36505	130.35635
14.8107	14.8174	170	98	481.81735	225.52841	180.46764	167.13994	217.36932	168.17185	216.84572	446.85141	1262.5385	501.69089	394.72411	413.11738	410.74429	390.52924	409.90395	427.68550	403.75744	433.96179	403.91999	419.59721	405.57718	409.25657	130.58972	130.36131	130.35972
14.8174	14.8241	183	89	481.79233	225.51756	180.45698	167.13061	217.35747	168.16223	216.83390	446.82968	1262.5089	501.66356	394.70357	413.07660	410.72118	390.51749	409.89664	427.67014	403.72409	433.94152	403.87120	419.57088	405.54234	409.22298	130.58511	130.35825	130.36076
14.8241	14.8308	188	85	481.76593	225.50431	180.44926	167.12371	217.34453	168.15459	216.82304	446.80969	1262.4844	501.63605	394.68316	413.03574	410.69973	390.50539	409.89100	427.65666	403.68921	433.92238	403.81922	419.54499	405.51126	409.19024	130.57812	130.35694	130.35582
14.8308	14.8375	190	90	481.73525	225.48994	180.43814	167.11319	217.33026	168.14429	216.80930	446.78497	1262.4359	501.60411	394.65869	412.99045	410.67353	390.48951	409.88006	427.63819	403.65080	433.89827	403.76191	419.51396	405.47656	409.15278	130.56888	130.35390	130.34921
14.8375	14.8442	186	86	481.69854	225.47403	180.42223	167.09755	217.31409	168.13027	216.79151	446.75356	1262.3537	501.56590	394.62849	412.93892	410.64062	390.46830	409.86164	427.61268	403.60742	433.86718	403.69711	419.47565	405.43677	409.10867	130.55646	130.34842	130.34024
14.8442	14.8509	176	78	481.66739	225.45903	180.41038	167.08667	217.30055	168.11875	216.77733	446.72927	1262.2951	501.53310	394.60394	412.89274	410.61273	390.45162	409.84935	427.59378	403.56889	433.84198	403.63881	419.44491	405.40410	409.07012	130.54645	130.34519	130.33291
14.8509	14.8576	197	87	481.64079	225.44478	180.40186	167.07969	217.28915	168.10930	216.76611	446.71083	1262.2561	501.50473	394.58405	412.85096	410.58898	390.43866	409.84211	427.58032	403.53434	433.82161	403.58584	419.42041	405.37728	409.03614	130.53842	130.34382	130.32691
14.8576	14.8643	175	86	481.63416	225.44232	180.39907	167.07701	217.28586	168.10733	216.76306	446.70828	1262.2600	501.49846	394.58651	412.82693	410.58251	390.44466	409.85092	427.58310	403.51662	433.81974	403.55199	419.41239	405.36892	409.01958	130.53553	130.34671	130.32435
14.8643	14.8710	206	90	481.63679	225.44532	180.39892	167.07633	217.28634	168.10885	216.76380	446.71309	1262.2837	501.50245	394.59932	412.81114	410.58405	390.45945	409.86718	427.59341	403.50671	433.82646	403.52701	419.41202	405.36912	409.01111	130.53502	130.35157	130.32339
14.8710	14.8777	193	98	481.64135	225.44644	180.40009	167.07873	217.28954	168.11023	216.76563	446.72088	1262.3222	501.50724	394.61351	412.79582	410.58596	390.47976	409.88539	427.60816	403.49760	433.83302	403.50592	419.41026	405.36786	409.00258	130.53442	130.35931	130.32162
14.8777	14.8844	199	101	481.64633	225.44714	180.40156	167.08182	217.29335	168.11159	216.76772	446.72933	1262.3641	501.51222	394.62801	412.78060	410.58795	390.50131	409.90405	427.62390	403.48866	433.83955	403.48569	419.40818	405.36627	408.99404	130.53379	130.36768	130.31968
14.8844	14.8911	190	98	481.64901	225.45055	180.40295	167.08200	217.29305	168.11300	216.76892	446.73701	1262.4048	501.51609	394.64781	412.76437	410.58896	390.51700	409.92085	427.63731	403.47895	433.84610	403.46830	419.40692	405.36627	408.98571	130.53424	130.37836	130.31710
14.8911	14.8978	215	93	481.65273	225.45432	180.40467	167.08244	217.29330	168.11474	216.77063	446.74541	1262.4463	501.52084	394.66796	412.74888	410.59064	390.53348	409.93853	427.65124	403.47009	433.85347	403.45211	419.40615	405.36709	408.97815	130.53488	130.38929	130.31474
14.8978	14.9045	219	107	481.66865	225.46029	180.40986	167.08721	217.30165	168.11992	216.77823	446.76186	1262.4965	501.53562	394.68897	412.74163	410.60010	390.56153	409.96648	427.67186	403.47066	433.86942	403.44695	419.41020	405.37580	408.97862	130.53706	130.40164	130.31516
14.9045	14.9112	253	89	481.69343	225.47124	180.41860	167.09551	217.31350	168.12841	216.78963	446.78719	1262.5757	501.56079	394.71877	412.74283	410.61867	390.59828	410.00306	427.70157	403.47888	433.89509	403.45030	419.42249	405.39241	408.98739	130.54197	130.41665	130.31810
14.9112	14.9179	283	97	481.74955	225.49977	180.43992	167.11629	217.33771	168.14857	216.81441	446.84391	1262.7568	501.62265	394.77960	412.77391	410.66946	390.66577	410.07009	427.76344	403.51418	433.95516	403.48372	419.46389	405.43699	409.02547	130.55654	130.44104	130.32994
14.9179	14.9246	290	94	481.80560	225.52674	180.46122	167.13641	217.36282	168.16877	216.83948	446.89994	1262.9328	501.68200	394.83714	412.80382	410.72018	390.73378	410.13803	427.82571	403.54917	434.01520	403.51608	419.50572	405.48105	409.06262	130.57064	130.46287	130.34162
14.9246	14.9313	328	97	481.86153	225.55088	180.48250	167.15535	217.38958	168.18904	216.86504	446.95474	1263.0993	501.73680	394.88872	412.83158	410.77076	390.80274	410.20763	427.88874	403.58358	434.07522	403.54653	419.54835	405.52419	409.09809	130.58390	130.48004	130.35301
14.9313	14.9380	343	94	481.91620	225.57634	180.50306	167.17444	217.41414	168.20800	216.89001	447.01043	1263.2688	501.79316	394.94118	412.85954	410.81918	390.87834	410.27512	427.95066	403.61726	434.13434	403.57677	419.58916	405.56645	409.13306	130.59693	130.49584	130.36424
14.9380	14.9447	325	105	481.96954	225.60318	180.52287	167.19369	217.43640	168.22559	216.91434	447.06704	1263.4413	501.85114	394.99453	412.88771	410.86531	390.96085	410.34041	428.01140	403.65018	434.19253	403.60676	419.62804	405.60779	409.16751	130.60974	130.51021	130.37529
14.9447	14.9514	408	106	482.02352	225.62823	180.54296	167.21253	217.46126	168.24440	216.93848	447.12204	1263.6103	501.90778	395.04616	412.91401	410.90580	391.03818	410.40317	428.07409	403.68175	434.24643	403.63614	419.66858	405.64945	409.20167	130.62356	130.52401	130.38614
14.9514	14.9581	439	117	482.07789	225.65221	180.56323	167.23111	217.48769	168.26393	216.96249	447.17607	1263.7772	501.96361	395.09675	412.93920	410.94289	391.11238	410.46442	428.13797	403.71251	434.29776	403.66514	419.71014	405.69133	409.23566	130.63799	130.53748	130.39688
14.9581	14.9648	515	101	482.13071	225.67778	180.58282	167.24951	217.51027	168.28167	216.98616	447.23178	1263.9335	502.01949	395.14676	412.96614	410.97954	391.16919	410.52309	428.20360	403.74495	434.34900	403.69404	419.75092	405.73239	409.26893	130.65092	130.55091	130.40759
14.9648	14.9715	627	132	482.18302	225.70386	180.60220	167.26785	217.53161	168.29883	217.00970	447.28801	1264.0863	502.07537	395.19658	412.99363	411.01604	391.22045	410.58092	428.26979	403.77793	434.40019	403.72290	419.79146	405.77319	409.30198	130.66338	130.56432	130.41828
14.9715	14.9782	733	119	482.25583	225.73886	180.62920	167.29321	217.56666	168.32603	217.04359	447.36140	1264.3067	502.15317	395.26602	413.03623	411.07427	391.27795	410.66132	428.35858	403.82614	434.46975	403.76864	419.84957	405.83071	409.35278	130.68181	130.58231	130.43453
14.9782	14.9849	941	116	482.33125	225.77493	180.65717	167.31948	217.60326	168.35437	217.07870	447.43706	1264.5357	502.23367	395.33776	413.08076	411.13537	391.33624	410.74470	428.45032	403.87629	434.54160	403.81648	419.90991	405.89034	409.40579	130.70100	130.60089	130.45148
14.9849	14.9916	1189	131	482.41052	225.81083	180.68694	167.34785	217.63594	168.38020	217.11275	447.51910	1264.7770	502.31572	395.40655	413.12904	411.20482	391.39560	410.83697	428.54998	403.93001	434.61591	403.86657	419.97427	405.95274	409.46093	130.72096	130.62078	130.46906
14.9916	14.9983	1534	147	482.48949	225.84721	180.71665	167.37589	217.66949	168.40663	217.14722	447.60112	1265.0169	502.39810	395.47622	413.17727	411.27438	391.45495	410.93125	428.65009	403.98349	434.69020	403.91667	420.03869	406.01502	409.51604	130.74086	130.64075	130.48666
14.9983	15.0050	2026	154	482.56691	225.88611	180.74610	167.40213	217.70754	168.43625	217.18396	447.68310	1265.2497	502.48222	395.55051	413.22519	411.34453	391.51425	411.03616	428.75255	404.03572	434.76436	403.96683	420.10344	406.07661	409.57102	130.76044	130.66113	130.50431
15.0050	15.0117	2622	181	482.64502	225.92383	180.77587	167.42903	217.74414	168.46487	217.21976	447.76511	1265.4846	502.56528	395.62378	413.27318	411.41464	391.57355	411.14128	428.85323	404.08813	434.83851	404.01693	420.16758	406.13836	409.62605	130.78038	130.68132	130.52198
15.0117	15.0184	3223	217	482.72481	225.95870	180.80642	167.45750	217.77724	168.49108	217.25332	447.84718	1265.7245	502.64581	395.69455	413.32135	411.48465	391.63284	411.24690	428.94965	404.14095	434.91262	404.06689	420.23025	406.20049	409.68119	130.80115	130.70105	130.53967
15.0184	15.0251	3788	233	482.80334	225.99559	180.83565	167.48449	217.81201	168.51803	217.28834	447.92968	1265.9600	502.72803	395.76689	413.36887	411.55465	391.69246	411.35206	429.04157	404.19374	434.98668	404.11690	420.29446	406.26219	409.73638	130.82123	130.72088	130.55727
15.0251	15.0318	3870	231	482.88020	226.03517	180.86313	167.50952	217.84898	168.54597	217.32529	448.01276	1266.1898	502.81251	395.84131	413.41554	411.62463	391.75253	411.45665	429.12752	404.24650	435.06067	404.16700	420.36072	406.32334	409.79164	130.84039	130.74086	130.57477
15.0318	15.0385	3627	189	482.95818	226.07329	180.89224	167.53681	217.88490	168.57369	217.36077	448.09645	1266.4298	502.90135	395.91266	413.46263	411.69452	391.81126	411.55357	429.20490	404.29924	435.13456	404.21693	420.42507	406.38520	409.84628	130.86023	130.76041	130.59220
15.0385	15.0452	3201	210	483.03700	226.11028	180.92260	167.56582	217.92002	168.60124	217.39509	448.18061	1266.6778	502.99355	395.98164	413.51003	411.76435	391.86895	411.64455	429.27565	404.35195	435.20836	404.26673	420.48793	406.44762	409.90042	130.88060	130.77963	130.60955
15.0452	15.0519	2482	170	483.11398	226.14948	180.95180	167.59240	217.95502	168.62858	217.43059	448.26579	1266.9342	503.08997	396.05282	413.55525	411.83396	391.92768	411.74192	429.34353	404.40405	435.28193	404.31642	420.55228	406.50881	409.95534	130.90006	130.79956	130.62704
15.0519	15.0586	2063	150	483.19017	226.18966	180.98051	167.61792	217.98999	168.65584	217.46661	448.35141	1267.1942	503.18823	396.12496	413.59952	411.90349	391.98687	411.84206	429.41017	404.45588	435.35540	404.36606	420.61729	406.56948	410.01061	130.91914	130.81979	130.64458
15.0586	15.0653	1576	130	483.28607	226.24024	181.01537	167.65265	218.03443	168.69012	217.51003	448.45149	1267.4829	503.30544	396.21148	413.65823	411.98763	392.06077	411.94914	429.49037	404.52335	435.44445	404.43015	420.69791	406.64509	410.07975	130.94385	130.84438	130.66678
15.0653	15.0720	1212	119	483.38596	226.29293	181.05149	167.68925	218.08079	168.72581	217.55495	448.55450	1267.7775	503.42649	396.30090	413.71986	412.07473	392.13764	412.05764	429.57332	404.59398	435.53667	404.49715	420.78169	406.72372	410.15170	130.96971	130.86986	130.68993
15.0720	15.0787	974	125	483.49044	226.35219	181.09284	167.72525	218.12634	168.76634	217.60276	448.66592	1268.1238	503.55166	396.39407	413.78633	412.16827	392.21725	412.17219	429.66398	404.66888	435.63546	404.57008	420.86939	406.80836	410.22987	130.99740	130.89745	130.71476
15.0787	15.0854	922	109	483.59530	226.41119	181.13436	167.76137	218.17224	168.80737	217.65105	448.77752	1268.4697	503.67676	396.48772	413.85309	412.26202	392.29726	412.28729	429.75480	404.74405	435.73448	404.64323	420.95774	406.89324	410.30829	131.02504	130.92498	130.73972
15.0854	15.0921	803	132	483.70198	226.46580	181.17564	167.79868	218.22142	168.85131	217.70260	448.88800	1268.7953	503.79979	396.58443	413.92083	412.35552	392.37991	412.40540	429.84453	404.82019	435.83339	404.71647	421.05061	406.97824	410.38685	131.05155	130.95128	130.76523
15.0921	15.0988	734	114	483.80847	226.52097	181.21825	167.83597	218.27010	168.89563	217.75589	448.99914	1269.1398	503.92261	396.68104	413.98860	412.44897	392.46236	412.52231	429.93429	404.89621	435.93225	404.78964	421.14295	407.06320	410.46541	131.07841	130.97791	130.79051
15.0988	15.1055	658	125	483.91439	226.57797	181.26518	167.87321	218.31718	168.94121	217.81481	449.11241	1269.5460	504.04477	396.77731	414.05645	412.54230	392.54420	412.63533	430.02414	404.97186	436.03098	404.86262	421.23358	407.14802	410.54397	131.10646	131.00568	130.81506
15.1055	15.1122	579	123	484.01993	226.63370	181.31289	167.91041	218.36487	168.98475	217.87210	449.22531	1269.9443	504.16485	396.87402	414.12457	412.63560	392.62554	412.74923	430.11380	405.04718	436.12966	404.93562	421.32413	407.23255	410.62235	131.13388	131.03348	130.84002
15.1122	15.1189	482	85	484.12480	226.68727	181.36191	167.94753	218.41359	169.02479	217.92659	449.33754	1270.3291	504.28139	396.97145	414.19316	412.72881	392.70601	412.86463	430.20312	405.12191	436.22822	405.00867	421.41453	407.31657	410.70044	131.16025	131.06133	130.86567
15.1189	15.1256	415	106	484.23053	226.74264	181.40846	167.98702	218.46302	169.06546	217.98132	449.44563	1270.6803	504.40155	397.06926	414.26161	412.82198	392.78699	412.97864	430.29195	405.19762	436.32669	405.08162	421.50583	407.40079	410.77851	131.18743	131.08866	130.89060
15.1256	15.1323	360	110	484.33711	226.79981	181.45258	168.02883	218.51314	169.10676	218.03630	449.54967	1270.9984	504.52530	397.16748	414.32993	412.91512	392.86849	413.09130	430.38030	405.27429	436.42510	405.15449	421.59802	407.48519	410.85658	131.21542	131.11548	130.91482
15.1323	15.1390	360	100	484.44218	226.85229	181.49703	168.07392	218.56573	169.14760	218.08921	449.65247	1271.3085	504.64399	397.26628	414.39810	413.00809	392.95021	413.20431	430.46969	405.34969	436.52341	405.22717	421.68880	407.56952	410.93451	131.24304	131.14246	130.93977
15.1390	15.1457	283	98	484.54639	226.90211	181.54165	168.12085	218.61971	169.18818	218.14094	449.75456	1271.6140	504.75979	397.36539	414.46617	413.10097	393.03206	413.31749	430.55967	405.42436	436.62164	405.29975	421.77876	407.65378	411.01235	131.27045	131.16952	130.96513
15.1457	15.1524	316	90	484.66460	226.96289	181.58913	168.16590	218.68148	169.23168	218.19837	449.86882	1271.9275	504.89317	397.47484	414.54429	413.20430	393.12275	413.44067	430.65940	405.50978	436.73085	405.38264	421.88071	407.74816	411.10079	131.30052	131.19968	130.99324
15.1524	15.1591	311	107	484.78695	227.02691	181.63746	168.21041	218.74554	169.27605	218.25750	449.98669	1272.2433	505.03176	397.58736	414.62538	413.31072	393.21605	413.56681	430.76203	405.59837	436.84331	405.46859	421.98622	407.84552	411.19237	131.33139	131.23076	131.02217
15.1591	15.1658	298	107	484.91590	227.09030	181.69215	168.26127	218.81270	169.32488	218.32060	450.11204	1272.5810	505.17516	397.70826	414.71420	413.42400	393.31558	413.70005	430.87262	405.69398	436.96309	405.56121	422.10207	407.94961	411.29027	131.36549	131.26481	131.05352
15.1658	15.1725	380	109	485.04566	227.15372	181.74724	168.31257	218.88004	169.37415	218.38408	450.23807	1272.9205	505.31908	397.83006	414.80379	413.53798	393.41587	413.83401	430.98397	405.79031	437.08361	405.65451	422.21884	408.05439	411.38887	131.39987	131.29913	131.08513
15.1725	15.1792	370	98	485.17828	227.21925	181.79636	168.35901	218.94426	169.42277	218.44699	450.36200	1273.2486	505.46372	397.95230	414.89264	413.65191	393.51902	413.96785	431.09396	405.88675	437.20399	405.74788	422.33208	408.15940	411.48847	131.43262	131.33284	131.11698
15.1792	15.1859	467	109	485.31012	227.28495	181.84641	168.40615	219.00844	169.47149	218.50983	450.48587	1273.5764	505.60857	398.07520	414.98163	413.76580	393.62140	414.10158	431.20418	405.98298	437.32436	405.84117	422.44635	408.26454	411.58798	131.46570	131.36647	131.14873
15.1859	15.1926	499	112	485.43835	227.35143	181.90080	168.45666	219.07245	169.52066	218.57230	450.60940	1273.9027	505.75440	398.20117	415.07123	413.87953	393.72018	414.23477	431.31551	406.07824	437.44466	405.93416	422.56542	408.37026	411.68706	131.50032	131.39975	131.17994
15.1926	15.1993	544	113	485.56405	227.41512	181.95307	168.50452	219.13424	169.56833	218.63282	450.73009	1274.2196	505.89625	398.32661	415.15781	413.99041	393.81684	414.36532	431.42334	406.17099	437.56191	406.02445	422.68151	408.47256	411.78320	131.53387	131.43250	131.21045
15.1993	15.2060	596	105	485.68413	227.47258	182.00064	168.54648	219.19112	169.61268	218.68898	450.84444	1274.5156	506.02922	398.45089	415.23766	414.09494	393.90877	414.49000	431.52335	406.25813	437.67238	406.10875	422.79096	408.56722	411.87280	131.56503	131.46408	131.23939
15.2060	15.2127	684	113	485.81483	227.53680	182.05173	168.59412	219.25464	169.66037	218.75163	450.96852	1274.8397	506.17346	398.58649	415.32587	414.20810	394.00949	414.62341	431.63293	406.35368	437.79198	406.20151	422.90988	408.67111	411.97100	131.59887	131.49786	131.27073
15.2127	15.2194	606	113	485.95880	227.60949	182.10723	168.64888	219.32646	169.71224	218.82240	451.10475	1275.1989	506.33179	398.73621	415.42456	414.33204	394.12118	414.76774	431.75448	406.45972	437.92298	406.30482	423.04063	408.78655	412.07995	131.63606	131.53438	131.30508
15.2194	15.2261	661	138	486.10500	227.68151	182.16455	168.70161	219.39439	169.76598	218.89051	451.24045	1275.5625	506.49088	398.88948	415.52439	414.45718	394.23317	414.91251	431.87663	406.56579	438.05524	406.40847	423.18012	408.90159	412.18998	131.67293	131.57171	131.34013
15.2261	15.2328	695	120	486.25286	227.75304	182.22319	168.75287	219.45951	169.82108	218.95669	451.37579	1275.9296	506.65057	399.04536	415.62507	414.58320	394.34539	415.05762	431.99924	406.67188	438.18843	406.51239	423.32598	409.01635	412.30082	131.70957	131.60964	131.37571
15.2328	15.2395	703	116	486.40045	227.82147	182.27770	168.80342	219.52678	169.87226	219.02273	451.50792	1276.2762	506.80389	399.17578	415.72010	414.70900	394.45189	415.20180	432.11649	406.77465	438.32130	406.61197	423.46677	409.12732	412.40674	131.74514	131.64592	131.40947
15.2395	15.2462	802	117	486.54793	227.88867	182.33055	168.85369	219.59493	169.92186	219.08870	451.63875	1276.6147	506.95465	399.29594	415.81286	414.83470	394.55609	415.34563	432.23158	406.87608	438.45406	406.70982	423.60552	409.23677	412.51068	131.78028	131.68155	131.44249
15.2462	15.2529	939	124	486.70031	227.95734	182.38454	168.90521	219.65956	169.97186	219.15433	451.76899	1276.9553	507.10868	399.40731	415.90693	414.96037	394.66283	415.49424	432.34713	406.97666	438.58491	406.80757	423.73498	409.34733	412.61492	131.81675	131.71679	131.47545
15.2529	15.2596	1082	108	486.85356	228.02629	182.43874	168.95695	219.72354	170.02192	219.21989	451.89912	1277.2963	507.26330	399.51708	416.00124	415.08603	394.77003	415.64372	432.46276	407.07708	438.71541	406.90530	423.86274	409.45810	412.71921	131.85346	131.75197	131.50841
15.2596	15.2663	1268	134	487.00323	228.09328	182.49318	169.00650	219.78796	170.07414	219.28363	452.02859	1277.6343	507.41321	399.62394	416.09337	415.21140	394.87522	415.78434	432.57885	407.17916	438.83812	407.00283	423.98981	409.56674	412.82303	131.88828	131.78703	131.54173
15.2663	15.2730	1546	142	487.14224	228.15553	182.54340	169.05219	219.84787	170.12221	219.34262	452.14821	1277.9446	507.55232	399.72177	416.17629	415.32754	394.97154	415.91659	432.68529	407.27220	438.95059	407.09130	424.10640	409.66652	412.91765	131.92031	131.81924	131.57208
15.2730	15.2797	1510	161	487.20009	228.18174	182.56133	169.06865	219.87311	170.13814	219.36549	452.19247	1278.0425	507.60947	399.75086	416.18899	415.37307	395.00012	415.98598	432.71776	407.29575	438.98578	407.11052	424.14292	409.69879	412.94201	131.93128	131.82958	131.57966
15.2797	15.2864	1497	164	487.16176	228.16299	182.54448	169.05297	219.85399	170.12215	219.34584	452.14834	1277.8908	507.56778	399.70208	416.12037	415.33654	394.95241	415.97186	432.66546	407.23993	438.93454	407.05017	424.09423	409.65031	412.88621	131.91615	131.81392	131.56166
15.2864	15.2931	1308	136	486.83482	228.00934	182.42325	168.94082	219.70176	170.01034	219.19861	451.83898	1276.9901	507.22949	399.41961	415.80772	415.05379	394.67576	415.70714	432.35881	406.94595	438.62394	406.75104	423.78985	409.35951	412.58988	131.82273	131.72023	131.46690
15.2931	15.2998	1065	108	486.50727	227.85585	182.30055	168.82699	219.55176	169.89659	219.05100	451.53063	1276.0884	506.88942	399.13734	415.49512	414.77008	394.39741	415.44239	432.05281	406.65255	438.31371	406.45229	423.48518	409.06907	412.30410	131.72938	131.62738	131.37211
15.2998	15.3065	850	128	486.17870	227.70256	182.17548	168.71046	219.40530	169.77970	218.90276	451.22383	1275.1846	506.54646	398.85534	415.18257	414.48481	394.11627	415.17756	431.74777	406.36002	438.00405	406.15410	423.18001	408.77915	412.03520	131.63615	131.53585	131.27726
15.3065	15.3132	672	105	485.84964	227.55023	182.05173	168.59753	219.25695	169.66563	218.75440	450.91860	1274.2815	506.20810	398.57391	414.86956	414.19972	393.83700	414.91336	431.44270	406.06765	437.69570	405.85611	422.87414	408.48997	411.79766	131.54385	131.44336	131.18247
15.3132	15.3199	493	100	485.52008	227.39876	181.92918	168.48793	219.10680	169.55416	218.60590	450.61478	1273.3789	505.87398	398.29297	414.55606	413.91475	393.55942	414.64971	431.13755	405.77540	437.38852	405.55828	422.56756	408.20146	411.58922	131.45240	131.34996	131.08774
15.3199	15.3266	430	112	485.19190	227.24680	181.80720	168.37364	218.95769	169.44005	218.45984	450.31138	1272.4749	505.53884	398.01181	414.24389	413.63000	393.28224	414.38843	430.83271	405.48193	437.08115	405.26054	422.26135	407.91243	411.40073	131.35975	131.25721	130.99320
15.3266	15.3333	372	92	484.86449	227.09457	181.68551	168.25687	218.80914	169.32454	218.31508	450.00822	1271.5702	505.20318	397.73056	413.93243	413.34538	393.00530	414.12843	430.52807	405.18783	436.77370	404.96287	421.95536	407.62316	411.22288	131.26646	131.16480	130.89876
15.3333	15.3400	326	87	484.53497	226.94403	181.56256	168.14362	218.66279	169.21133	218.16693	449.70675	1270.6727	504.86808	397.44881	413.61980	413.06092	392.72711	413.86751	430.22341	404.89519	436.46769	404.66564	421.64995	407.33546	411.05029	131.17373	131.07227	130.80412
15.3400	15.3467	288	107	484.20486	226.79394	181.43927	168.03132	218.51702	169.09875	218.01787	449.40572	1269.7771	504.53311	397.16691	413.30683	412.77649	392.44857	413.60633	429.91874	404.60293	436.16207	404.36853	421.34470	407.04817	410.87910	131.08114	130.97970	130.70944
15.3467	15.3534	299	101	483.87761	226.64271	181.31993	167.91777	218.36724	168.98630	217.87184	449.10752	1268.8805	504.20335	396.88623	412.99331	412.49161	392.16970	413.34453	429.61405	404.30970	435.85561	404.07074	421.03820	406.75884	410.69502	130.98814	130.88712	130.61498
15.3534	15.3601	280	89	483.55052	226.49159	181.20067	167.80412	218.21742	168.87385	217.72599	448.80943	1267.9835	503.87414	396.60554	412.67966	412.20671	391.89099	413.08234	429.30935	404.01644	435.54919	403.77292	420.73166	406.46940	410.51048	130.89510	130.79456	130.52053
15.3601	15.3668	276	106	483.22197	226.34398	181.07703	167.69053	218.07281	168.76119	217.57864	448.50933	1267.0812	503.54672	396.32307	412.36463	411.92205	391.61541	412.81446	429.00436	403.72399	435.24442	403.47537	420.42605	406.18101	410.33662	130.80195	130.70254	130.42575
15.3668	15.3735	297	86	482.89719	226.19870	180.95533	167.57864	217.92947	168.65014	217.43399	448.21208	1266.1903	503.22517	396.04430	412.05217	411.64090	391.34251	412.54956	428.70324	403.43466	434.94332	403.18135	420.12417	405.89622	410.16054	130.70994	130.61138	130.33237
15.3735	15.3802	303	102	482.58838	226.06335	180.84185	167.47396	217.79153	168.54600	217.30080	447.92693	1265.3483	502.92855	395.78131	411.75062	411.37463	391.08102	412.29730	428.41851	403.15855	434.65787	402.90229	419.83817	405.62673	409.97496	130.62280	130.52389	130.24493
15.3802	15.3869	252	95	482.28094	225.93031	180.72991	167.36965	217.65339	168.44202	217.16695	447.64149	1264.5067	502.63751	395.51855	411.45010	411.10911	390.82034	412.04575	428.13463	402.88394	434.37299	402.62396	419.55253	405.35917	409.78951	130.53559	130.43704	130.16260
15.3869	15.3936	246	99	481.97621	225.80203	180.62111	167.26605	217.51476	168.33832	217.03167	447.35531	1263.6657	502.35796	395.25618	411.15164	410.84503	390.56123	411.79556	427.85240	402.61232	434.08921	402.34706	419.26750	405.09549	409.60426	130.44821	130.35150	130.09085
15.3936	15.4003	286	86	481.67270	225.67236	180.51168	167.16187	217.38013	168.23668	216.89685	447.06788	1262.8305	502.07506	394.99466	410.85146	410.58111	390.30407	411.54610	427.56994	402.33985	433.80612	402.07032	418.98304	404.83730	409.41541	130.36178	130.26540	130.02528
15.4003	15.4070	243	77	481.37054	225.54100	180.40150	167.05696	217.25016	168.13744	216.76252	446.77888	1262.0019	501.78814	394.73406	410.54918	410.31729	390.04915	411.29741	427.28715	402.06629	433.52376	401.79368	418.69916	404.58552	409.22226	130.27644	130.17864	129.96698
15.4070	15.4137	200	87	481.06721	225.40705	180.29273	166.95533	217.11467	168.03629	216.63310	446.48918	1261.1702	501.48482	394.47336	410.25050	410.05365	389.79219	411.04627	427.00500	401.79391	433.24132	401.51720	418.41542	404.34301	409.02177	130.18995	130.09313	129.90207
15.4137	15.4204	209	92	480.76303	225.27130	180.18493	166.85594	216.97537	167.93381	216.50702	446.19897	1260.3363	501.17020	394.21259	409.95426	409.79011	389.53381	410.79341	426.72327	401.52230	432.95881	401.24079	418.13175	404.10683	408.81622	130.10267	130.00845	129.83262
15.4204	15.4271	201	81	480.45281	225.13234	180.07733	166.74905	216.83998	167.83816	216.37455	445.90078	1259.4795	500.83890	393.94572	409.65733	409.52056	389.27009	410.53896	426.43487	401.24447	432.67023	400.95836	417.84167	403.86580	408.60118	130.01363	129.92111	129.77575
15.4271	15.4338	212	108	480.14034	224.99217	179.96981	166.63936	216.70605	167.74507	216.23969	445.59962	1258.6141	500.50135	393.67658	409.36016	409.24878	389.00438	410.28395	426.14398	400.96433	432.37940	400.67370	417.54919	403.62297	408.38259	129.92395	129.83278	129.72361
15.4338	15.4405	237	89	479.84228	224.85040	179.87154	166.54132	216.57316	167.65105	216.12367	445.30963	1257.7944	500.17469	393.41925	409.07967	408.98882	388.75094	410.03604	425.86519	400.69608	432.10141	400.39799	417.26944	403.38338	408.17038	129.83839	129.74824	129.67284
15.4405	15.4472	272	100	479.54653	224.70835	179.77476	166.44515	216.44043	167.55688	216.01066	445.02142	1256.9821	499.84976	393.16380	408.80186	408.73075	388.49946	409.78927	425.58833	400.42974	431.82549	400.12371	416.99173	403.14431	407.95917	129.75348	129.66430	129.62227
15.4472	15.4539	312	85	479.26170	224.56929	179.67270	166.35412	216.31785	167.45464	215.89040	444.74541	1256.1979	499.53684	392.91834	408.53514	408.48307	388.25882	409.55698	425.32266	400.17148	431.56029	399.85607	416.72393	402.91914	407.76508	129.67218	129.58298	129.57662
15.4539	15.4606	323	89	478.97747	224.43006	179.57033	166.26376	216.19551	167.35213	215.76951	444.46956	1255.4141	499.22428	392.67305	408.26853	408.23548	388.01789	409.32446	425.05722	399.91368	431.29525	399.58842	416.45627	402.69322	407.56979	129.59118	129.50173	129.53076
15.4606	15.4673	380	95	478.69696	224.28964	179.46604	166.17768	216.07459	167.24811	215.64462	444.19442	1254.6316	498.91381	392.42871	408.00233	407.98817	387.77469	409.09003	424.79311	399.65873	431.03096	399.32057	416.18924	402.46203	407.36614	129.51214	129.42093	129.48334
15.4673	15.4740	379	87	478.41599	224.14931	179.36001	166.09060	215.95586	167.14402	215.51732	443.91929	1253.8494	498.60295	392.18416	407.73619	407.74094	387.53194	408.85607	424.52890	399.40355	430.76663	399.05269	415.92248	402.23007	407.16165	129.43255	129.34037	129.43404
15.4740	15.4807	386	80	478.13366	224.00918	179.24915	166.00076	215.84322	167.03969	215.38328	443.64415	1253.0678	498.29095	391.93900	407.47015	407.49387	387.29035	408.62334	424.26435	399.14766	430.50212	398.78467	415.65641	401.99596	406.95482	129.35141	129.26049	129.37952
15.4807	15.4874	305	96	477.85237	223.86943	179.13811	165.90900	215.73282	166.93527	215.24921	443.36841	1252.2837	497.97940	391.69377	407.20439	407.24693	387.05016	408.39016	423.99975	398.89188	430.23790	398.51732	415.39009	401.76260	406.74906	129.27049	129.17990	129.32290
15.4874	15.4941	315	96	477.57260	223.73020	179.02680	165.81434	215.62577	166.83070	215.11507	443.09172	1251.4955	497.66847	391.44837	406.93899	407.00013	386.81200	408.15625	423.73501	398.63622	429.97404	398.25091	415.12334	401.53031	406.54487	129.18988	129.09824	129.26310
15.4941	15.5008	325	99	477.29059	223.58934	178.91430	165.71623	215.50713	166.72596	214.97960	442.81288	1250.7080	497.35592	391.20210	406.67183	406.75157	386.56964	407.92093	423.46958	398.37990	429.70830	397.98277	414.85499	401.29390	406.34029	129.10876	129.01652	129.20556
15.5008	15.5075	278	117	477.00665	223.44707	178.80076	165.61509	215.37835	166.62106	214.84299	442.53219	1249.9210	497.04200	390.95509	406.40316	406.50150	386.32364	407.68439	423.20358	398.12304	429.44094	397.71315	414.58529	401.05392	406.13539	129.02721	128.93477	129.15001
15.5075	15.5142	266	84	476.72790	223.30696	178.68862	165.51266	215.24745	166.51638	214.70828	442.25431	1249.1423	496.73032	390.70955	406.13744	406.25435	386.08198	407.45063	422.93914	397.86834	429.17711	397.44814	414.31878	400.81683	405.92191	128.94623	128.85408	129.09179
15.5142	15.5209	226	99	476.45170	223.16792	178.57716	165.40956	215.11548	166.41178	214.57451	441.97782	1248.3678	496.41973	390.46471	405.87318	406.00863	385.84247	407.21823	422.67544	397.61469	428.91503	397.18541	414.05383	400.58116	405.70414	128.86554	128.77392	129.03225
15.5209	15.5276	224	88	476.37544	223.12299	178.54041	165.37577	215.07273	166.37861	214.53078	441.88850	1248.1121	496.31935	390.38670	405.77960	405.93335	385.76538	407.15616	422.58896	397.52751	428.83236	397.08984	413.96218	400.51292	405.67253	128.84016	128.74663	129.01799
15.5276	15.5343	182	97	476.34863	223.10133	178.52213	165.35911	215.05203	166.36311	214.50932	441.84546	1247.9847	496.27094	390.34993	405.72822	405.90022	385.72845	407.13622	422.54629	397.48149	428.79406	397.03562	413.91338	400.48608	405.68694	128.82845	128.73241	129.01494
15.5343	15.5410	205	92	476.60197	223.20896	178.60966	165.44004	215.15622	166.44345	214.61346	442.06029	1248.5944	496.51089	390.53850	405.91461	406.11038	385.91410	407.36266	422.75306	397.67071	429.01401	397.21363	414.10819	400.69358	405.92173	128.89144	128.79468	129.10685
15.5410	15.5477	166	101	476.87591	223.32593	178.70456	165.52779	215.26937	166.53062	214.72656	442.29346	1249.2557	496.77152	390.74328	406.11787	406.33755	386.11532	407.60640	422.97752	397.87653	429.25231	397.40822	414.32023	400.91781	406.17263	128.95984	128.86234	129.20422
15.5477	15.5544	157	72	477.17019	223.45014	178.80193	165.61792	215.38878	166.62181	214.84514	442.53718	1249.9367	497.04615	390.95966	406.33034	406.57068	386.32222	407.85714	423.21145	398.09009	429.50088	397.61314	414.54110	401.15253	406.43830	129.03249	128.93228	129.28824
15.5544	15.5611	150	84	477.46365	223.57367	178.89965	165.70838	215.50778	166.71322	214.96350	442.78058	1250.6200	497.32008	391.17553	406.54274	406.80240	386.52976	408.10835	423.44507	398.30364	429.74935	397.81784	414.76190	401.38652	406.70484	129.10501	129.00244	129.37309
15.5611	15.5678	147	103	477.75407	223.69463	178.99881	165.80012	215.62528	166.80554	215.08111	443.02293	1251.3130	497.59138	391.38955	406.75499	407.02869	386.73990	408.36155	423.67761	398.51726	429.99751	398.02182	414.98257	401.61786	406.97491	129.17706	129.07346	129.46118
15.5678	15.5745	148	92	478.05098	223.81664	179.09728	165.89119	215.74315	166.89720	215.19864	443.26580	1252.0055	497.86342	391.60434	406.96712	407.25427	386.95047	408.61385	423.91010	398.73101	430.24552	398.22590	415.20334	401.84962	407.24043	129.24890	129.14462	129.55093
15.5745	15.5812	143	92	478.36043	223.94063	179.19437	165.98090	215.86175	166.98752	215.31601	443.50965	1252.6969	498.13684	391.82055	407.17896	407.47841	387.16183	408.86431	424.14240	398.94497	430.49314	398.43015	415.42424	402.08213	407.49700	129.32031	129.21606	129.64390
15.5812	15.5879	178	102	478.66715	224.06327	179.29208	166.07170	215.97998	167.07870	215.43351	443.75267	1253.3827	498.40919	392.03516	407.39060	407.70464	387.37203	409.11659	424.37474	399.15926	430.74066	398.63421	415.64442	402.31403	407.76242	129.39211	129.28730	129.72910
15.5879	15.5946	179	98	478.97086	224.18442	179.39049	166.16373	216.09782	167.17083	215.55119	443.99480	1254.0626	498.68041	392.24801	407.60205	407.93322	387.58095	409.37093	424.60714	399.37394	430.98811	398.83810	415.86382	402.54528	408.03773	129.46436	129.35830	129.80569
15.5946	15.6013	218	91	479.27095	224.30669	179.48836	166.25419	216.21512	167.26193	215.66825	444.23660	1254.7481	498.95234	392.46216	407.81322	408.16222	387.79105	409.62146	424.83773	399.58672	431.23515	399.04213	416.08348	402.77574	408.30361	129.53588	129.42870	129.89423
15.6013	15.6080	270	84	479.56866	224.42968	179.58588	166.34364	216.33204	167.35234	215.78488	444.47816	1255.4370	499.22471	392.67712	408.02420	408.39148	388.00188	409.86949	425.06712	399.79824	431.48191	399.24624	416.30328	403.00568	408.56337	129.60691	129.49871	129.99048
15.6080	15.6147	316	98	479.84790	224.55116	179.68347	166.43461	216.44971	167.44371	215.90264	444.71947	1256.1171	499.49586	392.88993	408.23506	408.62199	388.21412	410.12143	425.29463	400.01471	431.72816	399.45023	416.52289	403.23691	408.82580	129.67933	129.56928	130.07336
15.6147	15.6214	412	102	480.12072	224.67211	179.78108	166.52612	216.56765	167.53542	216.02078	444.96070	1256.7941	499.76659	393.10201	408.44589	408.85294	388.42685	410.37474	425.52151	400.23290	431.97423	399.65419	416.74245	403.46861	409.08916	129.75224	129.64006	130.15160
15.6214	15.6281	455	101	480.40133	224.80116	179.88365	166.62123	216.69055	167.63057	216.14379	445.21578	1257.5172	500.05279	393.32710	408.66871	409.09161	388.64768	410.63205	425.76357	400.45549	432.22956	399.87022	416.97367	403.70990	409.36822	129.82843	129.71482	130.24198
15.6281	15.6348	540	100	480.68284	224.93128	179.98687	166.71681	216.81412	167.72617	216.26744	445.47269	1258.2465	500.34104	393.55392	408.89314	409.33123	388.86955	410.88982	426.00764	400.67867	432.48606	400.08786	417.20643	403.95248	409.64934	129.90505	129.79012	130.33403
15.6348	15.6415	623	101	480.95062	225.05695	180.08794	166.81007	216.93689	167.82041	216.38905	445.72216	1258.9601	500.62056	393.77516	409.11400	409.56326	389.08565	411.14304	426.24166	400.90246	432.73380	400.30125	417.43352	404.19161	409.91982	129.97984	129.86338	130.42221
15.6415	15.6482	589	108	481.21882	225.18271	180.18898	166.90336	217.05927	167.91460	216.51059	445.97175	1259.6715	500.90040	393.99630	409.33490	409.79539	389.30237	411.39621	426.47609	401.12639	432.98164	400.51465	417.66050	404.43032	410.19123	130.05498	129.93668	130.51002
15.6482	15.6549	492	106	481.48973	225.30913	180.28996	166.99689	217.17938	168.00865	216.63185	446.22220	1260.3715	501.18233	394.21702	409.55621	410.02835	389.52299	411.64937	426.71317	401.35139	433.23037	400.72834	417.88706	404.66682	410.46836	130.13223	130.01025	130.59573
15.6549	15.6616	410	95	481.76189	225.43609	180.39159	167.09097	217.30120	168.10340	216.75379	446.47390	1261.0796	501.46543	394.43948	409.77907	410.26309	389.74468	411.90401	426.95250	401.57740	433.48085	400.94367	418.11527	404.90545	410.74572	130.20917	130.08405	130.68218
15.6616	15.6683	290	98	482.03737	225.56446	180.49489	167.18653	217.42750	168.20000	216.87754	446.72891	1261.8092	501.75166	394.66656	410.00602	410.50255	389.96922	412.16260	427.19773	401.80614	433.73596	401.16333	418.34783	405.14968	411.02382	130.28529	130.15847	130.77054
15.6683	15.6750	274	90	482.31358	225.69360	180.59812	167.28226	217.55280	168.29649	217.00164	446.98415	1262.5342	502.03883	394.89321	410.23287	410.74167	390.19325	412.42093	427.44189	402.03474	433.99063	401.38282	418.58066	405.39411	411.29998	130.36360	130.23299	130.85903
15.6750	15.6817	181	102	482.59073	225.82379	180.70122	167.37823	217.67668	168.39280	217.12622	447.23965	1263.2526	502.32728	395.11922	410.45955	410.98024	390.41652	412.67884	427.68449	402.26310	434.24460	401.60204	418.81383	405.63876	411.57335	130.44502	130.30766	130.94769
15.6817	15.6884	160	110	482.86663	225.95251	180.80455	167.47417	217.80077	168.48908	217.25017	447.49534	1263.9767	502.61465	395.34572	410.68597	411.21873	390.64036	412.93683	427.92799	402.49064	434.49871	401.82119	419.04638	405.88289	411.84528	130.52374	130.38329	131.03454
15.6884	15.6951	156	93	483.14154	226.08002	180.90807	167.57010	217.92505	168.58535	217.37360	447.75122	1264.7059	502.90114	395.57263	410.91220	411.45719	390.86469	413.19491	428.17226	402.71752	434.75294	402.04031	419.27846	406.12663	412.11606	130.60024	130.45971	131.11991
15.6951	15.7018	127	88	483.41724	226.20946	181.01066	167.66526	218.04959	168.68123	217.49768	448.00612	1265.4284	503.18761	395.79868	411.13832	411.69595	391.08979	413.45338	428.41715	402.94492	435.00680	402.25935	419.51024	406.37066	412.38696	130.67795	130.53450	131.20916
15.7018	15.7085	105	108	483.69329	226.33979	181.11282	167.76007	218.17424	168.77692	217.62206	448.26054	1266.1479	503.47405	396.02430	411.36437	411.93484	391.31523	413.71200	428.66231	403.17253	435.26046	402.47835	419.74188	406.61482	412.65790	130.75621	130.60853	131.30021
15.7085	15.7152	107	91	483.97110	226.46938	181.21753	167.85683	218.29907	168.87439	217.74690	448.51679	1266.8640	503.76395	396.25209	411.59259	412.17618	391.54311	413.97123	428.90972	403.40171	435.51638	402.69960	419.97631	406.86138	412.93125	130.83653	130.68451	131.38801
15.7152	15.7219	106	101	484.24931	226.59881	181.32282	167.95403	218.42395	168.97225	217.87185	448.77347	1267.5794	504.05463	396.48038	411.82131	412.41807	391.77154	414.23060	429.15765	403.63126	435.77282	402.92137	420.21137	407.10849	413.20514	130.91731	130.76094	131.47508
15.7219	15.7286	112	86	484.54844	226.73963	181.43402	168.05700	218.55902	169.07603	218.00633	449.05054	1268.3563	504.36583	396.72651	412.06792	412.67751	392.01369	414.51009	429.42375	403.87976	436.04876	403.16052	420.46385	407.37568	413.48975	131.00061	130.84373	131.57228
15.7286	15.7353	98	82	484.84659	226.87994	181.54491	168.15971	218.69373	169.17947	218.14038	449.32674	1269.1312	504.67602	396.97175	412.31365	412.93604	392.25529	414.78877	429.68901	404.12728	436.32375	403.39886	420.71548	407.64223	413.77279	131.08391	130.92623	131.66923
15.7353	15.7420	90	84	485.12306	227.00849	181.64923	168.25658	218.81906	169.27625	218.26490	449.58257	1269.8524	504.96435	397.19784	412.54031	413.17547	392.48384	415.04795	429.93561	404.35415	436.57800	403.61919	420.94878	407.89122	414.03352	131.16595	131.00225	131.75820
15.7420	15.7487	106	80	485.39508	227.13525	181.75168	168.35154	218.94204	169.37141	218.38734	449.83448	1270.5604	505.24776	397.42100	412.76342	413.41138	392.70858	415.30301	430.17842	404.57796	436.82864	403.83588	421.17836	408.13642	414.29384	131.24540	131.07723	131.84585
15.7487	15.7554	106	92	485.65113	227.25558	181.84737	168.43967	219.05660	169.46075	218.50237	450.07229	1271.2213	505.51349	397.63362	412.97374	413.63469	392.91967	415.54324	430.40762	404.79077	437.06633	404.03948	421.39456	408.36802	414.55261	131.31557	131.14846	131.92874
15.7554	15.7621	128	70	485.90777	227.37594	181.94307	168.52839	219.17229	169.55018	218.61773	450.30968	1271.8865	505.78025	397.84518	413.18396	413.85815	393.13094	415.78511	430.63638	405.00319	437.30371	404.24334	421.61038	408.60017	414.80772	131.38534	131.21990	132.01272
15.7621	15.7688	134	86	486.16555	227.49637	182.03883	168.61820	219.29005	169.63978	218.73371	450.54640	1272.5600	506.04897	398.05485	413.39403	414.08196	393.34256	416.03004	430.86437	405.21496	437.54060	404.44775	421.82558	408.83338	415.05623	131.45439	131.29174	132.09870
15.7688	15.7755	165	97	486.34786	227.58158	182.10720	168.68183	219.37211	169.70349	218.81562	450.71522	1273.0329	506.23912	398.20476	413.54077	414.24224	393.49440	416.20798	431.02738	405.36476	437.71084	404.58994	421.97659	409.00143	415.24155	131.50233	131.34302	132.16100
15.7755	15.7822	160	99	486.45098	227.62983	182.14683	168.71799	219.41671	169.74002	218.86176	450.81279	1273.2955	506.34681	398.29198	413.62106	414.33583	393.58350	416.31563	431.12220	405.44952	437.81114	404.66684	422.06025	409.10112	415.36058	131.52811	131.37273	132.19846
15.7822	15.7889	165	77	486.35638	227.58631	182.11125	168.68449	219.37497	169.70718	218.81958	450.72708	1273.0470	506.24925	398.21601	413.53282	414.26026	393.51109	416.25753	431.04166	405.36873	437.73286	404.57928	421.97153	409.03386	415.30915	131.50060	131.35037	132.18368
15.7889	15.7956	185	87	486.14190	227.48714	182.03005	168.60875	219.28085	169.63226	218.72385	450.53023	1272.4885	506.02723	398.04107	413.34239	414.08210	393.34075	416.09893	430.85477	405.18754	437.54629	404.39198	421.77827	408.86536	415.15435	131.44076	131.29642	132.13724
15.7956	15.8023	193	95	485.91085	227.37911	181.94439	168.53001	219.17536	169.55218	218.61990	450.31742	1271.8951	505.78715	397.85263	413.13811	413.89029	393.15941	415.92388	430.65304	404.99357	437.34497	404.19109	421.57218	408.67954	414.98326	131.37614	131.23731	132.08809
15.8023	15.8090	236	103	485.67452	227.26825	181.85731	168.45031	219.06623	169.47045	218.51332	450.09953	1271.2907	505.54131	397.65989	412.92941	413.69413	392.97457	415.74357	430.44657	404.79552	437.13894	403.98587	421.36202	408.48818	414.80696	131.30998	131.17654	132.03808
15.8090	15.8157	257	109	485.44845	227.16303	181.77160	168.37029	218.96527	169.39135	218.41090	449.88858	1270.6877	505.30504	397.47170	412.72828	413.50590	392.79995	415.57253	430.24841	404.60466	436.94085	403.78741	421.16326	408.30312	414.64408	131.24603	131.12082	131.98301
15.8157	15.8224	314	88	485.22399	227.05864	181.68626	168.29046	218.86540	169.31270	218.30918	449.67893	1270.0865	505.07033	397.28438	412.52842	413.31899	392.62693	415.40294	430.05169	404.41498	436.74407	403.59012	420.96775	408.11918	414.48306	131.18247	131.06583	131.92775
15.8224	15.8291	349	97	485.01433	226.95971	181.60876	168.21995	218.76993	169.23916	218.21536	449.48772	1269.5474	504.85218	397.11035	412.34257	413.14594	392.46804	415.24693	429.87265	404.23791	436.56174	403.40677	420.84450	407.94913	414.33121	131.12400	131.01506	131.88939
15.8291	15.8358	422	105	484.80366	226.86055	181.53059	168.14845	218.67427	169.16549	218.12089	449.29518	1269.0031	504.63323	396.93532	412.15608	412.97198	392.30791	415.08980	429.69213	404.06079	436.37853	403.22254	420.73056	407.77815	414.17975	131.06512	130.96373	131.84796
15.8358	15.8425	477	103	484.58760	226.76010	181.44876	168.07169	218.57762	169.09105	218.02287	449.09553	1268.4309	504.40993	396.75491	411.96611	412.79311	392.14117	414.92669	429.50360	403.88331	436.19058	403.03353	420.66552	407.60219	414.03025	131.00398	130.90937	131.79036
15.8425	15.8492	475	103	484.36789	226.65778	181.36602	167.99469	218.47909	169.01485	217.92373	448.89263	1267.8537	504.18242	396.57227	411.77355	412.61280	391.97350	414.76298	429.31241	403.70320	436.00097	402.84219	420.59187	407.42321	413.87450	130.94205	130.85581	131.73718
15.8492	15.8559	516	106	484.13949	226.55100	181.28113	167.91713	218.37609	168.93447	217.82192	448.68197	1267.2648	503.94486	396.38438	411.57482	412.42909	391.80367	414.59790	429.11490	403.51680	435.80742	402.64529	420.49759	407.23704	413.70379	130.87825	130.80420	131.69460
15.8559	15.8626	504	89	483.91086	226.44486	181.19584	167.83836	218.27288	168.85474	217.71946	448.47082	1266.6808	503.70794	396.19661	411.37630	412.24512	391.63271	414.43145	428.91783	403.33106	435.61412	402.44841	420.43035	407.05070	413.53563	130.81432	130.74963	131.64473
15.8626	15.8693	517	124	483.68188	226.33954	181.10999	167.75794	218.16938	168.77589	217.61609	448.25898	1266.1033	503.47183	396.00897	411.17804	412.06076	391.46023	414.26315	428.72130	403.14616	435.42114	402.25151	420.39917	406.86409	413.37086	130.75022	130.69112	131.58510
15.8693	15.8760	510	105	483.45493	226.23332	181.02450	167.67904	218.06697	168.69656	217.51389	448.04948	1265.5107	503.23526	395.82100	410.97988	411.87760	391.29480	414.09752	428.52701	402.96111	435.22836	402.05489	420.34401	406.67866	413.20865	130.68626	130.63087	131.53236
15.8760	15.8827	530	90	483.22961	226.12643	180.93933	167.60136	217.96544	168.61686	217.41261	447.84185	1264.9066	502.99839	395.63282	410.78185	411.69542	391.13490	413.93402	428.33450	402.77598	435.03576	401.85854	420.27020	406.49418	413.04847	130.62242	130.56928	131.48501
15.8827	15.8894	506	99	483.00252	226.02126	180.85423	167.52266	217.86272	168.53784	217.31032	447.63414	1264.3170	502.76283	395.44760	410.58407	411.51274	390.97964	413.76612	428.13998	402.59215	434.84343	401.66228	420.19236	406.30949	412.88630	130.55882	130.50618	131.43353
15.8894	15.8961	506	109	482.77462	225.91681	180.76915	167.44351	217.75947	168.45909	217.20757	447.42637	1263.7337	502.52781	395.26363	410.38637	411.32983	390.82637	413.59630	427.94456	402.40887	434.65118	401.46604	420.11274	406.12467	412.72324	130.49530	130.44242	131.38025
15.8961	15.9028	409	87	482.53794	225.80462	180.68136	167.36154	217.65310	168.37649	217.10137	447.20880	1263.1137	502.28174	395.06875	410.18032	411.13843	390.65419	413.42302	427.74307	402.21541	434.44970	401.26178	420.02070	405.93100	412.54633	130.42867	130.37631	131.32633
15.9028	15.9095	328	112	482.29950	225.69086	180.59303	167.27900	217.54612	168.29311	216.99449	446.98928	1262.4864	502.03346	394.87169	409.97260	410.94534	390.47820	413.24907	427.54038	402.01992	434.24638	401.05592	419.92615	405.73555	412.36664	130.36142	130.30974	131.27229
15.9095	15.9162	271	87	482.05817	225.58005	180.50216	167.19592	217.43748	168.20899	216.88604	446.76994	1261.8705	501.78417	394.67628	409.76370	410.75123	390.28004	413.07091	427.34203	401.82449	434.04228	400.84850	419.79770	405.53969	412.19398	130.29430	130.24218	131.21813
15.9162	15.9229	228	85	481.81826	225.46973	180.41185	167.11328	217.32947	168.12541	216.77815	446.55176	1261.2591	501.53614	394.48183	409.55588	410.55793	390.08186	412.89351	427.14534	401.63018	433.83895	400.64215	419.66842	405.34483	412.02218	130.22748	130.17495	131.16391
15.9229	15.9296	180	77	481.59239	225.36305	180.32743	167.03501	217.22778	168.04697	216.67599	446.34432	1260.6854	501.29999	394.29577	409.35852	410.37249	389.89085	412.72456	426.96246	401.44629	433.64303	400.44615	419.54265	405.15949	411.85610	130.16356	130.11118	131.10919
15.9296	15.9363	150	97	481.36861	225.25802	180.24358	166.95730	217.12681	167.96904	216.57499	446.13950	1260.1126	501.06655	394.11220	409.16308	410.18840	389.70173	412.55526	426.78364	401.26412	433.44872	400.25215	419.42044	404.97620	411.69274	130.10042	130.04812	131.05596
15.9363	15.9430	165	102	481.15162	225.15839	180.16158	166.88143	217.02817	167.89278	216.47776	445.94314	1259.5426	500.84186	393.93673	408.97382	410.00869	389.51871	412.38473	426.61804	401.08753	433.25959	400.06457	419.30977	404.79951	411.53817	130.03983	129.98734	131.00755
15.9430	15.9497	153	84	480.93458	225.05768	180.08005	166.80636	216.93037	167.81730	216.38057	445.74543	1258.9811	500.61719	393.76008	408.78463	409.82920	389.33560	412.21402	426.45182	400.91119	433.07044	399.87692	419.18962	404.62275	411.38164	129.97903	129.92644	130.95785
15.9497	15.9564	159	80	480.71753	224.95514	179.99933	166.73271	216.83403	167.74319	216.28346	445.54546	1258.4340	500.39263	393.58143	408.59560	409.65015	389.15237	412.04305	426.28460	400.73535	432.88129	399.68919	419.05321	404.44590	411.22179	129.91790	129.86536	130.90593
15.9564	15.9631	190	68	480.50107	224.85393	179.91877	166.65807	216.73623	167.66777	216.18595	445.34532	1257.8786	500.16831	393.40488	408.40676	409.47096	388.96971	411.87040	426.11385	400.55952	432.69244	399.50162	418.92530	404.26847	411.06355	129.85691	129.80449	130.85698
15.9631	15.9698	225	90	480.28515	224.75401	179.83836	166.58245	216.63696	167.59103	216.08803	445.14497	1257.3148	499.94421	393.23038	408.21809	409.29163	388.78758	411.69607	425.93959	400.38366	432.50386	399.31418	418.80577	404.09044	410.90687	129.79608	129.74384	130.81096
15.9698	15.9765	310	100	480.06876	224.65356	179.75755	166.50762	216.53971	167.51650	215.99123	444.94550	1256.7703	499.71972	393.05576	408.02956	409.11294	388.60537	411.52738	425.75594	400.20839	432.31561	399.12736	418.68705	403.91421	410.74448	129.73554	129.68305	130.76040
15.9765	15.9832	359	82	479.85216	224.55283	179.67653	166.43327	216.44365	167.44323	215.89510	444.74657	1256.2369	499.49507	392.88112	407.84115	408.93465	388.42317	411.36192	425.56699	400.03349	432.12758	398.94094	418.56882	403.73905	410.57889	129.67519	129.62219	130.70726
15.9832	15.9899	446	88	479.63812	224.45272	179.59641	166.35892	216.34619	167.36822	215.79896	444.54892	1255.7069	499.26954	392.70620	407.65150	408.75769	388.24211	411.19615	425.37247	399.85936	431.94051	398.75486	418.43283	403.56388	410.42579	129.61452	129.56182	130.65777
15.9899	15.9966	576	109	479.42480	224.35278	179.51654	166.28456	216.24832	167.29268	215.70280	444.35162	1255.1778	499.04371	392.53118	407.46145	408.58110	388.06135	411.03026	425.17626	399.68544	431.75369	398.56886	418.29157	403.38867	410.27638	129.55376	129.50159	130.60934
15.9966	16.0033	751	113	479.21017	224.25205	179.43637	166.21019	216.15351	167.21820	215.60596	444.15628	1254.6292	498.81577	392.35999	407.26772	408.40348	387.88093	410.86374	424.97851	399.51107	431.56710	398.38389	418.16183	403.21401	410.12249	129.49384	129.44170	130.55799
16.0033	16.0100	974	110	478.99554	224.15126	179.35623	166.13587	216.05894	167.14384	215.50916	443.96123	1254.0802	498.58777	392.18917	407.07360	408.22587	387.70057	410.69741	424.78069	399.33676	431.38060	398.19908	418.03317	403.03950	409.96799	129.43403	129.38184	130.50658
16.0100	16.0167	1139	124	478.78286	224.05002	179.27700	166.06240	215.96183	167.06927	215.41421	443.76638	1253.5658	498.36198	392.01626	406.87776	408.04967	387.51960	410.53610	424.58400	399.16353	431.19428	398.01403	417.90057	402.86575	409.80886	129.37404	129.32161	130.46075
16.0167	16.0234	1253	127	478.58747	223.95674	179.20424	165.99491	215.87302	167.00071	215.32678	443.58801	1253.0991	498.15438	391.85808	406.69689	407.88845	387.35304	410.38926	424.40287	399.00508	431.02379	397.84363	417.78214	402.70666	409.66545	129.31878	129.26614	130.41840
16.0234	16.0301	1260	114	478.47341	223.90091	179.16192	165.95555	215.82329	166.96044	215.27465	443.48721	1252.8568	498.03233	391.76917	406.58643	407.79770	387.25419	410.31046	424.29490	398.91610	430.92774	397.74207	417.73051	402.61650	409.59608	129.28572	129.23313	130.39237
16.0301	16.0368	1106	123	478.55375	223.93698	179.19165	165.98384	215.86078	166.98719	215.30987	443.56666	1253.1210	498.11349	391.83899	406.64137	407.87228	387.31237	410.39975	424.35896	398.98873	431.00665	397.80179	417.85025	402.68960	409.69311	129.30521	129.25250	130.42129
16.0368	16.0435	1048	114	479.06932	224.17883	179.38274	166.16363	216.09353	167.16398	215.54066	444.04971	1254.5190	498.64963	392.26417	407.06665	408.31701	387.72212	410.86534	424.80820	399.42319	431.47730	398.22261	418.35360	403.12820	410.16265	129.44239	129.38912	130.57320
16.0435	16.0502	882	120	479.65776	224.45346	179.60182	166.36839	216.35887	167.36750	215.80327	444.60033	1256.1318	499.26048	392.74985	407.55461	408.82359	388.19078	411.39143	425.32197	399.91750	432.01322	398.70398	418.91688	403.62797	410.69391	129.59890	129.54565	130.74360
16.0502	16.0569	816	122	480.33826	224.76952	179.85625	166.60471	216.66537	167.60480	216.10609	445.23635	1258.0157	499.96571	393.31197	408.12175	409.40832	388.73385	411.99396	425.91729	400.48741	432.63164	399.26186	419.55594	404.20502	411.30319	129.77986	129.72733	130.93737
16.0569	16.0636	912	104	481.02370	225.08941	180.11030	166.84198	216.97484	167.84303	216.41197	445.87598	1259.8671	500.67733	393.87720	408.69295	409.99739	389.28072	412.60201	426.51705	401.06305	433.25434	399.82367	420.19865	404.78709	411.91823	129.96256	129.91009	131.13316
16.0636	16.0703	917	110	481.71325	225.41231	180.36423	167.08012	217.28669	168.08213	216.72030	446.51871	1261.6958	501.39412	394.44511	409.26751	410.59007	389.83075	413.21450	427.12051	401.64327	433.88061	400.38875	420.84450	405.37324	412.53792	130.14666	130.09377	131.33058
16.0703	16.0770	1033	104	482.40597	225.73542	180.62288	167.31948	217.59809	168.32332	217.03045	447.15884	1263.5439	502.11324	395.01582	409.84528	411.18478	390.38315	413.83018	427.72568	402.22447	434.50951	400.95605	421.49747	405.96089	413.15398	130.33118	130.27810	131.52943
16.0770	16.0837	1182	111	483.09979	226.05852	180.88335	167.55928	217.90921	168.56529	217.34125	447.79775	1265.3993	502.83310	395.58752	410.42418	411.78016	390.93635	414.44697	428.33138	402.80590	435.13929	401.52408	422.15315	406.54897	413.76839	130.51581	130.46264	131.72881
16.0837	16.0904	1239	121	483.79132	226.38165	181.14031	167.79584	218.21902	168.80533	217.65142	448.43700	1267.2232	503.55311	396.16333	411.00191	412.37478	391.48877	415.06037	428.93653	403.38674	435.76781	402.09142	422.79999	407.13641	414.38611	130.70036	130.64701	131.92560
16.0904	16.0971	1327	125	484.48197	226.70458	181.39646	168.03165	218.52839	169.04486	217.96126	449.07588	1269.0401	504.27267	396.73951	411.57905	412.96887	392.04069	415.67273	429.54117	403.96708	436.39569	402.65827	423.44478	407.72334	415.00402	130.88478	130.83122	132.12179
16.0971	16.1038	1166	104	485.17177	227.02789	181.65434	168.27156	218.83780	169.28574	218.27050	449.71254	1270.8256	504.99005	397.30730	412.15479	413.56073	392.59005	416.29090	430.14316	404.54596	437.02133	403.22280	424.09354	408.30761	415.62030	131.06816	131.01457	132.31919
16.1038	16.1105	1072	109	485.86119	227.35083	181.91210	168.51116	219.14681	169.52650	218.57958	450.34901	1272.6092	505.70710	397.87602	412.73030	414.15235	393.13926	416.90769	430.74498	405.12461	437.64671	403.78715	424.74164	408.89160	416.23657	131.25147	131.19790	132.51643
16.1105	16.1172	845	102	486.54437	227.66921	182.16738	168.74659	219.45123	169.76485	218.88587	450.98120	1274.3747	506.41836	398.45036	413.30148	414.73959	393.68492	417.50984	431.34288	405.69876	438.26733	404.34756	425.38085	409.47098	416.84993	131.43346	131.38030	132.71119
16.1172	16.1239	717	113	487.23210	227.99020	182.42423	168.98359	219.75913	170.00449	219.19455	451.61692	1276.1521	507.13444	399.02616	413.87658	415.33049	394.23385	418.11858	431.94434	406.27640	438.89191	404.91143	426.02476	410.05472	417.46754	131.61672	131.56370	132.90727
16.1239	16.1306	581	98	487.93397	228.31925	182.68602	169.22547	220.07775	170.24820	219.51061	452.26363	1277.9665	507.86549	399.60669	414.46385	415.93282	394.79294	418.74766	432.55692	406.86494	439.52877	405.48610	426.68324	410.65200	418.09839	131.80396	131.75024	133.10744
16.1306	16.1373	493	101	488.92901	228.78513	183.05830	169.57011	220.52606	170.59494	219.95761	453.18219	1280.5460	508.90143	400.43204	415.29964	416.78609	395.58949	419.62760	433.42955	407.69829	440.43093	406.30431	427.60194	411.49561	418.97993	132.07009	132.01607	133.38742
16.1373	16.1440	398	92	490.39755	229.47201	183.60903	170.08073	221.18385	171.10809	220.61610	454.53982	1284.3612	510.42982	401.65284	416.53682	418.04468	396.76953	420.91279	434.72221	408.92709	441.76161	407.51587	428.94098	412.73710	420.26645	132.46365	132.40996	133.79631
16.1440	16.1507	366	89	491.80160	230.12882	184.13447	170.56696	221.81568	171.59810	221.24733	455.83835	1288.0108	511.89096	402.82268	417.71962	419.25082	397.89722	422.14744	435.95770	410.10167	443.03666	408.67415	430.22056	413.92285	421.49577	132.84020	132.78637	134.18707
16.1507	16.1574	319	124	493.14634	230.75796	184.63663	171.03074	222.42367	172.06682	221.85351	457.08252	1291.5083	513.29023	403.94567	418.85240	420.40877	398.97674	423.33567	437.14060	411.22639	444.26060	409.78342	431.44542	415.05732	422.67248	133.20112	133.14670	134.56115
16.1574	16.1641	279	92	494.13361	231.22010	185.00601	171.37351	222.86795	172.41045	222.29738	457.99452	1294.0690	514.31889	404.77827	419.68154	421.26229	399.76745	424.21673	438.00642	412.05368	445.16241	410.59524	432.35595	415.89280	423.54862	133.46516	133.41061	134.84268
16.1641	16.1708	314	78	494.92900	231.59259	185.30410	171.65131	223.22436	172.68695	222.65412	458.72821	1296.1267	515.14860	405.45497	420.34770	421.95237	400.40313	424.93289	438.70204	412.72129	445.89129	411.24740	433.09772	416.56778	424.26337	133.67720	133.62278	135.07450
16.1708	16.1775	327	82	495.60867	231.91111	185.55861	171.88609	223.53105	172.92604	222.95967	459.35680	1297.8805	515.85968	406.03478	420.91716	422.54448	400.94539	425.55151	439.29635	413.29296	446.51731	411.80485	433.74581	417.14508	424.88153	133.85820	133.80400	135.26668
16.1775	16.1842	294	91	496.25720	232.21512	185.80139	172.10929	223.82438	173.15508	223.25145	459.95712	1299.5524	516.53884	406.58854	421.46062	423.11023	401.46252	426.14392	439.86340	413.83882	447.11566	412.33682	434.36875	417.69610	425.47373	134.03083	133.97690	135.44816
16.1842	16.1909	309	103	496.69859	232.42547	185.96824	172.26477	224.02585	173.30974	223.45263	460.36860	1300.6954	517.00497	406.95361	421.83025	423.50173	401.81570	426.56017	440.24952	414.21218	447.52762	412.69900	434.80495	418.07903	425.88523	134.14912	134.09444	135.58495
16.1909	16.1976	242	88	497.13343	232.63300	186.13287	172.41827	224.22446	173.46211	223.65109	460.77434	1301.8221	517.46470	407.31137	422.19453	423.88794	402.16387	426.97121	440.63010	414.57996	447.93330	413.05596	435.23548	418.45682	426.29101	134.26573	134.21031	135.72034
16.1976	16.2043	231	95	497.76455	232.93170	186.37254	172.63883	224.51069	173.68607	223.93780	461.36306	1303.4587	518.13223	407.82483	422.72602	424.44329	402.67033	427.55576	441.18530	415.10896	448.50892	413.57652	435.84710	418.99698	426.86802	134.43450	134.37995	135.89837
16.2043	16.2110	199	100	498.40449	233.23449	186.61494	172.86245	224.80104	173.91261	224.22814	461.95929	1305.1181	518.80819	408.34518	423.26474	425.00565	403.18355	428.14791	441.74784	415.64455	449.08791	414.10399	436.46331	419.54433	427.45079	134.60577	134.55175	136.08033
16.2110	16.2177	171	77	499.08421	233.55572	186.86976	173.09990	225.10990	174.15093	224.53498	462.58955	1306.8808	519.52240	408.89667	423.83612	425.59982	403.72727	428.77450	442.34359	416.21008	449.68310	414.66275	437.10103	420.12416	428.06004	134.78823	134.73333	136.27966
16.2177	16.2244	153	93	499.70858	233.85151	187.10440	173.31823	225.39370	174.37001	224.81767	463.16970	1308.5001	520.17967	409.40277	424.36066	426.14638	404.22683	429.35169	442.89086	416.72891	450.22856	415.17579	437.68987	420.65820	428.62504	134.95558	134.90003	136.46275
16.2244	16.2311	128	78	500.21800	234.09445	187.29716	173.49686	225.62543	174.54916	225.05025	463.64578	1309.8219	520.71867	409.81460	424.78790	426.59405	404.63464	429.82630	443.33742	417.15072	450.67070	415.59391	438.17721	421.09716	429.09817	135.09155	135.03586	136.61208
16.2311	16.2378	155	93	500.59634	234.27495	187.44101	173.62968	225.79722	174.68315	225.22294	463.99927	1310.7926	521.12123	410.11824	425.10267	426.92686	404.93499	430.19380	443.66610	417.45925	450.99536	415.90173	438.55063	421.42268	429.45681	135.19172	135.13613	136.72504
16.2378	16.2445	139	92	500.81887	234.38120	187.52674	173.70803	225.89779	174.76348	225.32447	464.20706	1311.3460	521.36161	410.29330	425.28378	427.12315	405.10762	430.43393	443.85470	417.63316	451.18042	416.07849	438.78860	421.61339	429.67932	135.24935	135.19412	136.79473
16.2445	16.2512	160	94	501.19099	234.55823	187.66761	173.83777	226.06831	174.89564	225.49345	464.55518	1312.3008	521.75678	410.59189	425.59361	427.44884	405.40257	430.79270	444.17795	417.93401	451.50343	416.38160	439.15467	421.93531	430.02541	135.34875	135.29283	136.90806
16.2512	16.2579	193	74	501.66650	234.78418	187.84661	174.00302	226.28718	175.06363	225.70907	465.00028	1313.5329	522.25896	410.97588	425.99240	427.86397	405.78206	431.23349	444.59429	418.32259	451.92178	416.77203	439.60933	422.34792	430.45695	135.47702	135.41966	137.05156
16.2579	16.2646	218	97	502.22883	235.05118	188.05880	174.19973	226.54164	175.26236	225.96434	465.52450	1314.9826	522.85302	411.42890	426.46183	428.35026	406.22972	431.76991	445.08463	418.78297	452.41913	417.23155	440.13789	422.82807	430.96532	135.62841	135.56908	137.21269
16.2646	16.2713	186	93	502.82412	235.33376	188.28360	174.40839	226.80961	175.47276	226.23468	466.07876	1316.5149	523.48197	411.90814	426.95808	428.86357	406.70328	432.34259	445.60308	419.27061	452.94647	417.71730	440.69454	423.33389	431.50287	135.78858	135.72707	137.38053
16.2713	16.2780	233	79	503.67685	235.73575	188.60458	174.70494	227.19601	175.77239	226.62102	466.87429	1318.7200	524.38037	412.59937	427.67441	429.59762	407.38594	433.13233	446.35041	419.97636	453.70746	418.41821	441.48719	424.05757	432.25728	136.02612	135.95469	137.62628
16.2780	16.2847	246	94	504.57098	236.15694	188.94103	175.01563	227.60145	176.08638	227.02602	467.70864	1321.0334	525.32211	413.32471	428.42615	430.36716	408.10224	433.95695	447.13457	420.71720	454.50603	419.15374	442.31781	424.81629	433.04656	136.27610	136.19352	137.88457
16.2847	16.2914	202	98	505.49456	236.59567	189.28665	175.33903	228.01856	176.41008	227.44297	468.57386	1323.4280	526.29481	414.07212	429.20182	431.16107	408.84030	434.80928	447.94402	421.48409	455.33151	419.91223	443.15939	425.60003	433.85992	136.54306	136.44037	138.14156
16.2914	16.2981	218	89	506.30866	236.98289	189.59203	175.62424	228.38643	176.69586	227.81084	469.33774	1325.5353	527.15383	414.73016	429.88470	431.86175	409.49012	435.56556	448.65655	422.15946	456.05870	420.57988	443.90504	426.29149	434.57958	136.77975	136.65770	138.36963
16.2981	16.3048	230	93	506.38839	237.02451	189.62754	175.65311	228.42398	176.72727	227.84959	469.42170	1325.7155	527.25040	414.78862	429.94508	431.93704	409.54809	435.67772	448.71896	422.22083	456.12661	420.63814	444.00778	426.36393	434.67082	136.81321	136.67694	138.40410
16.3048	16.3115	224	87	506.44709	237.05709	189.65392	175.67473	228.45223	176.75152	227.87880	469.48572	1325.8433	527.32788	414.82965	429.98755	431.99445	409.58893	435.76508	448.76300	422.26553	456.17580	420.67918	444.09273	426.41974	434.74390	136.84539	136.69053	138.43132
16.3115	16.3182	265	86	506.44695	237.06432	189.65472	175.67608	228.45443	176.75575	227.88128	469.49391	1325.8241	527.35190	414.82192	429.97987	432.00183	409.58182	435.78301	448.75559	422.26359	456.17259	420.67203	444.12787	426.42897	434.76608	136.87395	136.68833	138.43825
16.3182	16.3249	256	101	506.30223	237.00506	189.60304	175.62806	228.39121	176.70861	227.81988	469.36384	1325.4205	527.22714	414.69471	429.84828	431.88425	409.45630	435.67273	448.61822	422.14056	456.03747	420.54314	444.03249	426.31367	434.66531	136.85809	136.64662	138.40649
16.3249	16.3316	228	106	505.93834	236.84500	189.47182	175.50523	228.22885	176.58362	227.66165	469.02419	1324.4344	526.87691	414.38641	429.52885	431.57727	409.15130	435.36811	448.28383	421.83396	455.70239	420.22972	443.73930	426.00960	434.37818	136.77493	136.54502	138.31605
16.3316	16.3383	238	101	505.69895	236.74497	189.38564	175.42415	228.12213	176.50423	227.55656	468.80004	1323.7769	526.66114	414.18106	429.31688	431.37847	408.94871	435.17337	448.06183	421.63266	455.48166	420.02158	443.56188	425.81443	434.19253	136.75115	136.47746	138.25933
16.3383	16.3450	241	104	505.56879	236.69761	189.33898	175.37969	228.06422	176.46484	227.49810	468.67722	1323.4077	526.56336	414.06600	429.19918	431.27457	408.83596	435.07503	447.93843	421.52372	455.36125	419.90577	443.48605	425.71481	434.09592	136.77954	136.43976	138.23221
16.3450	16.3517	214	104	505.54456	236.69595	189.33424	175.37310	228.05752	176.46160	227.49244	468.64944	1323.3142	526.56013	414.03673	429.16896	431.25864	408.80708	435.06529	447.90643	421.50033	455.33426	419.87571	443.49990	425.70667	434.09549	136.81610	136.43021	138.23296
16.3517	16.3584	202	91	505.57334	236.71715	189.35047	175.38546	228.07645	176.47644	227.51320	468.66922	1323.3587	526.60419	414.05038	429.18250	431.28673	408.82017	435.09989	447.92016	421.51973	455.35401	419.88855	443.55860	425.74430	434.14317	136.85674	136.43474	138.24765
16.3584	16.3651	208	76	505.66330	236.76876	189.39144	175.42059	228.11661	176.51772	227.56225	468.74712	1323.5641	526.69899	414.11502	429.25033	431.36912	408.88456	435.18863	447.99073	421.59374	455.43200	419.95411	443.66880	425.83575	434.24564	136.91216	136.45633	138.27799
16.3651	16.3718	174	90	505.76843	236.82791	189.43854	175.46137	228.16202	176.56556	227.61830	468.83941	1323.8093	526.80636	414.19232	429.33162	431.46496	408.96166	435.29078	448.07539	421.68129	455.52441	420.03275	443.79174	425.94053	434.36167	136.97122	136.48215	138.31220
16.3718	16.3785	145	84	506.11692	236.99418	189.58003	175.58588	228.32855	176.70015	227.78720	469.15432	1324.6934	527.15832	414.46858	429.61726	431.76745	409.23417	435.60296	448.37409	421.97061	455.83469	420.31413	444.13221	426.25093	434.68642	137.13271	136.57314	138.41482
16.3785	16.3852	117	93	506.44952	237.15196	189.71578	175.70485	228.48796	176.82864	227.94920	469.45409	1325.5356	527.49292	414.73164	429.88917	432.05617	409.49367	435.90120	448.65846	422.24651	456.13045	420.58263	444.45871	426.54774	434.99716	137.28896	136.65984	138.51317
16.3852	16.3919	107	83	506.34162	237.09551	189.68600	175.67116	228.43886	176.79416	227.91312	469.34267	1325.2196	527.36604	414.63189	429.78611	431.96715	409.39605	435.81625	448.55070	422.15383	456.02786	420.48892	444.39426	426.46987	434.92468	137.27881	136.62811	138.49016
16.3919	16.3986	100	77	506.30008	237.07008	189.67954	175.66159	228.42148	176.78104	227.90561	469.29250	1325.0750	527.30786	414.58616	429.73892	431.93449	409.35166	435.78879	448.50145	422.11615	455.98489	420.45060	444.38728	426.44749	434.90938	137.29173	136.61514	138.48537
16.3986	16.4053	94	93	506.51841	237.16609	189.76437	175.74645	228.52826	176.85156	228.01001	469.48211	1325.6013	527.51870	414.75196	429.91051	432.12250	409.51568	435.98644	448.68129	422.29380	456.17541	420.62914	444.60530	426.64243	435.11798	137.39503	136.67568	138.55190
16.4053	16.4120	93	85	506.86364	237.32143	189.89537	175.87667	228.69210	176.96680	228.16853	469.79007	1326.4641	527.86255	415.02234	430.19042	432.41937	409.78291	436.29240	448.97416	422.57780	456.48064	420.91355	444.93734	426.94439	435.43508	137.52108	136.77430	138.65274
16.4120	16.4187	90	72	507.45784	237.59319	190.11694	176.09590	228.96791	177.16974	228.43328	470.33021	1327.9873	528.46733	415.49789	430.68285	432.92980	410.25262	436.81091	449.48875	423.07049	457.01094	421.40568	445.49313	427.45638	435.96509	137.69187	136.94762	138.82090
16.4187	16.4254	71	69	508.12973	237.90120	190.36545	176.33760	229.28137	177.39942	228.73149	470.94128	1329.7096	529.15249	416.03660	431.24086	433.50619	410.78493	437.39788	450.07178	423.62939	457.61059	421.96144	446.11391	428.03295	436.56353	137.88864	137.14455	139.01173
16.4254	16.4321	80	86	508.88818	238.24961	190.64398	176.60435	229.63679	177.65891	229.06699	471.63137	1331.6537	529.92722	416.64566	431.87195	434.15608	411.38698	438.06115	450.73108	424.26207	458.28753	422.58810	446.80709	428.68149	437.23821	138.11437	137.36779	139.22780
16.4321	16.4388	87	70	510.05009	238.78563	191.07304	177.00982	230.17518	178.05853	229.58225	472.69321	1334.6511	531.11965	417.58340	432.84385	435.14796	412.31318	439.06826	451.74549	425.22815	459.32631	423.54895	447.85369	429.66772	438.25636	138.45490	137.70964	139.55132
16.4388	16.4455	66	62	511.47250	239.44280	191.59929	177.50485	230.83171	178.54865	230.21359	473.99510	1338.3285	532.58180	418.73337	434.03582	436.36067	413.44869	440.29738	452.98922	426.40950	460.59873	424.72558	449.12847	430.87199	439.49625	138.86954	138.12809	139.94421
16.4455	16.4522	71	105	513.12768	240.21017	192.21324	178.07594	231.57993	179.12114	230.95160	475.51469	1342.6218	534.28900	420.07583	435.42737	437.77516	414.77481	441.73068	454.44183	427.78560	462.08419	426.09532	450.61089	432.27376	440.94247	139.33584	138.61818	140.40318
16.4522	16.4589	88	93	514.86526	241.01653	192.85822	178.67395	232.36066	179.72279	231.72735	477.11133	1347.1330	536.08293	421.48641	436.88954	439.26107	416.16839	443.23624	455.96837	429.23064	463.64503	427.53342	452.16680	433.74545	442.46172	139.82048	139.13363	140.88555
16.4589	16.4656	105	98	517.02221	242.01593	193.65798	179.41476	233.32553	180.46748	232.68786	479.08925	1352.7145	538.30519	423.23396	438.70028	441.09978	417.89370	445.09793	457.85882	431.02246	465.57789	429.31163	454.08215	435.56454	444.33355	140.43323	139.76199	141.48116
16.4656	16.4723	68	95	519.23530	243.04115	194.47844	180.17467	234.31501	181.23133	233.67311	481.11820	1358.4392	540.58479	425.02661	440.55766	442.98577	419.66404	447.00733	459.79797	432.86072	467.56061	431.13535	456.04571	437.43015	446.25256	141.06310	140.40551	142.09197
16.4723	16.4790	74	84	521.05904	243.88668	195.15499	180.80167	235.13021	181.86267	234.48631	482.79298	1363.1713	542.46609	426.50601	442.09128	444.54964	421.19251	448.59160	461.39872	434.37904	469.20471	432.64183	457.68525	438.97458	447.84268	141.57155	140.94915	142.60081
16.4790	16.4857	70	89	522.83424	244.70909	195.81300	181.41144	235.92311	182.47652	235.27715	484.42177	1367.7725	544.29573	427.94471	443.58269	446.07036	422.70010	450.13348	462.95553	435.85671	470.80409	434.10695	459.28011	440.47714	449.39144	142.06798	141.47870	143.09568
16.4857	16.4924	65	91	524.32716	245.39699	196.36309	181.92091	236.58621	182.98857	235.93782	485.78293	1371.6122	545.82474	429.14656	444.82842	447.33995	424.08900	451.42882	464.25660	437.09791	472.14331	435.33144	460.61509	441.73616	450.69982	142.49475	141.92638	143.50926
16.4924	16.4991	81	74	525.78965	246.07001	196.90149	182.41968	237.23491	183.49000	236.58456	487.11529	1375.3713	547.32129	430.32314	446.04773	448.57881	425.46824	452.69651	465.53008	438.31193	473.45437	436.53004	461.92199	442.96933	451.97876	142.91145	142.36183	143.91489
16.4991	16.5058	71	90	527.17283	246.70431	197.40939	182.89055	237.84608	183.96376	237.19503	488.37259	1378.9206	548.73327	431.43388	447.19822	449.73763	426.82204	453.89215	466.73167	439.45509	474.69206	437.66121	463.15572	444.13516	453.18099	143.30193	142.76546	144.29977
16.5058	16.5125	71	104	528.38434	247.25662	197.85132	183.30013	238.37851	184.37589	237.72624	489.47040	1382.0116	549.96213	432.40025	448.19968	450.74120	427.99895	454.93763	467.77743	440.45220	475.77193	438.64636	464.23724	445.15164	454.23550	143.64451	143.11924	144.63487
16.5125	16.5192	79	68	529.34984	247.69146	198.19874	183.62190	238.79811	184.69972	238.14389	490.33967	1384.4461	550.92865	433.15979	448.98763	451.52239	428.92245	455.76796	468.59993	441.24002	476.62570	439.42232	465.10062	445.95415	455.07829	143.91842	143.40156	144.89865
16.5192	16.5259	53	78	530.23072	248.08430	198.51303	183.91300	239.17682	184.99257	238.52137	491.12693	1386.6416	551.80245	433.84697	449.69951	452.23010	429.75195	456.51987	469.36162	441.95595	477.39858	440.12321	465.88302	446.68354	455.84013	144.17042	143.65991	145.14200
16.5259	16.5326	66	87	531.04193	248.44253	198.80004	184.17883	239.52183	185.25990	238.86575	491.84665	1388.6402	552.59987	434.47453	450.34870	452.87729	430.50399	457.20721	470.07333	442.61268	478.10481	440.76226	466.59871	447.35273	456.53529	144.40439	143.89852	145.36855
16.5326	16.5393	62	96	531.31361	248.55092	198.88680	184.25915	239.62633	185.34070	238.97000	492.06946	1389.2481	552.84103	434.66404	450.54539	453.07509	430.79574	457.43640	470.34099	442.82570	478.33030	440.95794	466.85205	447.57199	456.77201	144.48545	143.99136	145.44408
16.5393	16.5460	73	84	531.33307	248.54252	198.87994	184.25275	239.61839	185.33430	238.96200	492.05997	1389.2058	552.82215	434.64877	450.53052	453.06280	430.87235	457.45144	470.40108	442.83131	478.33103	440.94636	466.88926	447.58093	456.79444	144.49503	144.01605	145.44902
16.5460	16.5527	78	79	530.08536	247.94570	198.40226	183.81021	239.04310	184.88925	238.38774	490.88579	1385.8724	551.49480	433.60581	449.44817	451.98274	429.94181	456.38270	469.41353	441.79009	477.19965	439.89061	465.81490	446.52765	455.74306	144.16992	143.69814	145.11463
16.5527	16.5594	65	93	528.55136	247.21594	197.81822	183.26914	238.33962	184.34510	237.68556	489.44847	1381.7953	549.87186	432.33069	448.12466	450.66146	428.78369	455.06911	468.18924	440.51237	475.81249	438.59896	464.48939	445.23439	454.44906	143.76919	143.30280	144.70358
16.5594	16.5661	62	96	525.79264	245.92258	196.78333	182.31028	237.09257	183.38080	236.44231	486.90355	1374.5640	546.99495	430.06831	445.78063	448.30602	426.63326	452.71295	465.97141	438.23085	473.33477	436.30837	462.10187	442.92790	452.10796	143.04026	142.57771	143.95840
16.5661	16.5728	76	73	522.86736	244.55193	195.68659	181.29414	235.77105	182.35886	235.12478	484.20605	1366.9010	543.94616	427.67085	443.29650	445.80950	424.34843	450.21422	463.60797	435.81127	470.70803	433.88062	459.56932	440.48212	449.62439	142.26582	141.80748	143.16781
16.5728	16.5795	65	71	518.83644	242.66579	194.17716	179.89590	233.95308	180.95222	233.31119	480.48778	1356.3621	539.75089	424.37329	439.87680	442.37475	421.17403	446.76585	460.23364	432.46869	467.08919	430.53683	456.07165	437.10560	446.19487	141.18579	140.73643	142.07603
16.5795	16.5862	53	66	514.75759	240.75744	192.64998	178.48122	232.11346	179.52909	231.47623	476.72496	1345.6977	535.50620	421.03660	436.41710	438.89935	417.96064	443.27603	456.80815	429.08573	463.42735	427.15369	452.52951	433.69012	442.72269	140.09424	139.65174	140.97135
16.5862	16.5929	72	88	510.51794	238.77463	191.06334	177.01147	230.20129	178.05069	229.56965	472.81268	1334.6125	531.09584	417.56871	432.82339	435.28761	414.61623	439.64711	453.20866	425.56719	459.62133	423.63865	448.83760	430.14423	439.10703	138.96436	138.52107	139.82340
16.5929	16.5996	70	72	506.23644	236.77216	189.46100	175.52709	228.27046	176.55750	227.64435	468.86298	1323.4197	526.64186	414.06678	429.19380	431.64114	411.22814	435.98250	449.56244	422.01174	455.77759	420.08861	445.11111	426.56229	435.45661	137.82074	137.38198	138.66147
16.5996	16.6063	68	93	501.87563	234.73242	187.82891	174.01495	226.30428	175.03631	225.68358	464.84226	1312.0230	522.10519	410.50034	425.49623	427.92879	407.75787	432.25026	445.82828	418.38647	451.86235	416.47229	441.31897	422.91209	431.74026	136.65122	136.22678	137.47323
16.6063	16.6130	71	79	497.54606	232.70753	186.20860	172.51385	224.35213	173.52643	223.73678	460.85224	1300.7086	517.60156	406.95965	421.82562	424.24398	404.30938	428.54424	442.10847	414.78444	447.97561	412.88221	437.55391	419.28711	428.05007	135.49055	135.07484	136.30021
16.6130	16.6197	76	91	493.24677	230.69705	184.59971	171.02347	222.41356	172.02754	221.80351	456.89215	1289.4740	513.12999	403.44393	418.18119	420.58593	400.88174	424.86361	438.40154	411.20472	444.11654	409.31759	433.81511	415.68649	424.38521	134.33850	133.92567	135.14249
16.6197	16.6264	90	105	489.12020	228.76713	183.05538	169.59273	220.55272	170.58834	219.94790	453.09542	1278.7059	508.83720	400.06876	414.68275	417.07306	397.59589	421.33131	434.83534	407.76749	440.41136	405.89545	430.22856	412.23173	420.87312	133.23063	132.82574	134.02109
16.6264	16.6331	79	89	485.10271	226.88809	181.55183	168.19966	218.74097	169.18684	218.14135	449.40176	1268.2321	504.65733	396.78236	411.27652	413.65191	394.39948	417.89268	431.35822	404.42027	436.80341	402.56329	426.73812	408.86906	417.45737	132.15071	131.75685	132.92286
16.6331	16.6398	89	76	481.07681	225.00539	180.04510	166.80379	216.92569	167.78278	216.33073	445.72027	1257.9121	500.46937	393.49009	407.86307	410.22518	391.19340	414.44624	427.87171	401.06672	433.18947	399.22473	423.23569	405.49979	414.02803	131.07283	130.68458	131.83675
16.6398	16.6465	91	93	477.04855	223.12167	178.53748	165.40714	215.10944	166.37801	214.51895	442.04306	1247.6429	496.27918	390.19623	404.44760	406.79695	387.98448	410.99759	424.38249	397.71142	429.57393	395.88441	419.72970	402.12870	410.59460	129.99570	129.61132	130.75465
16.6465	16.6532	90	76	473.41447	221.42202	177.17753	164.14723	213.47084	165.11074	212.88500	438.74801	1238.3598	492.49892	387.22386	401.36660	403.70491	385.09364	407.88878	421.24103	394.68455	426.31181	392.87042	416.56922	399.09209	407.50076	129.02435	128.64029	129.76329
16.6532	16.6599	106	86	469.85611	219.75775	175.84593	162.91358	211.86637	163.86988	211.28515	435.52540	1229.2801	488.79739	384.31332	398.34982	400.67748	382.26397	404.84518	418.16645	391.72075	423.11768	389.91914	413.47505	396.11966	404.47212	128.07331	127.68933	128.79088
16.6599	16.6666	84	71	467.45953	218.63660	174.94887	162.08263	210.78566	163.03402	210.20728	433.38518	1223.6701	486.30409	382.35379	396.31756	398.64170	380.37375	402.79971	416.11799	389.72420	420.96960	387.93131	411.39669	394.12885	402.44285	127.43322	127.05699	128.14988
16.6666	16.6733	105	81	465.17973	217.57017	174.09554	161.29217	209.75768	162.23894	209.18201	431.34728	1218.3338	483.93240	380.48971	394.38429	396.70522	378.57610	400.85518	414.17263	387.82507	418.92668	386.04030	409.42300	392.23695	400.51506	126.82640	126.45631	127.53953
16.6733	16.6800	99	82	463.51896	216.79380	173.47400	160.71638	209.00926	161.66000	208.43555	429.85178	1214.4479	482.20536	379.13155	392.97572	395.29510	377.26918	399.44569	412.77384	386.44235	417.44115	384.66251	408.00417	390.86944	399.12525	126.39596	126.02341	127.09157
16.6800	16.6867	102	88	462.17670	216.16622	172.97169	160.25105	208.40424	161.19200	207.83209	428.65305	1211.3875	480.80939	378.03395	391.83711	394.15632	376.23143	398.31012	411.65474	385.32494	416.24205	383.54908	406.86401	389.77198	398.00763	126.04880	125.67658	126.73233
16.6867	16.6934	128	85	461.60098	215.89675	172.75629	160.05159	208.14435	160.99100	207.57272	428.16862	1210.3140	480.21020	377.56340	391.34820	393.67053	375.84159	397.83380	411.20884	384.84604	415.73227	383.07185	406.39454	389.32450	397.54514	125.90206	125.53692	126.58665
16.6934	16.7001	115	90	461.50172	215.85043	172.71910	160.01704	208.09958	160.95634	207.52786	428.12245	1210.5190	480.10685	377.48256	391.26329	393.59252	375.83069	397.76865	411.18688	384.76433	415.65245	382.98961	406.34363	389.27991	397.49720	125.88683	125.52719	126.57114
16.7001	16.7068	152	73	462.04166	216.10347	172.92100	160.20375	208.34342	161.14484	207.77076	428.66417	1212.4387	480.66870	377.92454	391.72039	394.06158	376.32810	398.25510	411.73359	385.21549	416.14945	383.43730	406.85420	389.77577	398.00539	126.04799	125.69174	126.73024
16.7068	16.7135	157	87	463.02808	216.56478	173.29018	160.54593	208.78826	161.48891	208.21437	429.62304	1215.3540	481.69489	378.73171	392.55594	394.91069	377.18297	399.12645	412.68189	386.03934	417.04822	384.25558	407.75891	390.64759	398.89560	126.33563	125.97805	127.01172
16.7135	16.7202	188	108	464.36207	217.18823	173.78959	161.00914	209.38960	161.95410	208.81422	430.90663	1219.0436	483.08257	379.82317	393.68612	396.05566	378.31608	400.29743	413.94277	387.15335	418.25976	385.36235	408.97041	391.81205	400.08317	126.72172	126.35913	127.38846
16.7202	16.7269	229	91	465.94093	217.92700	174.38058	161.55648	210.10156	162.50494	209.52423	432.40365	1223.5289	484.72521	381.11519	395.02395	397.41048	379.65464	401.67870	415.41635	388.47124	419.69266	386.67141	410.39963	393.17295	401.48360	127.16586	126.81098	127.83356
16.7269	16.7336	287	110	467.62778	218.71662	175.01196	162.14093	210.86230	163.09355	210.28283	433.99486	1228.3648	486.48028	382.49567	396.45336	398.85784	381.08382	403.15272	416.98379	389.87904	421.22319	388.06969	411.92489	394.62053	402.97793	127.63563	127.29403	128.30881
16.7336	16.7403	394	110	469.52616	219.60428	175.72247	162.79952	211.71836	163.75530	211.13648	435.78525	1233.7148	488.45496	384.06404	398.06165	400.48333	382.68622	404.81151	418.74145	391.46251	422.94351	389.64238	413.63480	396.23843	404.65115	128.17110	127.82646	128.83874
16.7403	16.7470	493	92	471.46797	220.51207	176.44922	163.47333	212.59399	164.43207	212.00964	437.61652	1239.1704	490.47472	385.67097	399.70667	402.14539	384.32419	406.50823	420.53815	393.08204	424.70279	391.25087	415.38263	397.89130	406.36109	128.72005	128.36903	129.37992
16.7470	16.7537	631	89	473.94774	221.67225	177.37738	164.33295	213.71193	165.29730	213.12457	439.95321	1245.8438	493.05523	387.80473	401.80916	404.26927	386.40440	408.66668	422.81784	395.15205	426.94736	393.30877	417.61127	399.99670	408.53782	129.40720	129.06454	130.07472
16.7537	16.7604	892	118	476.47148	222.85299	178.32198	165.20781	214.84977	166.17784	214.25933	442.33074	1252.6423	495.68144	389.98182	403.94882	406.43061	388.51908	410.86326	425.13673	397.25859	429.23142	395.40321	419.87763	402.13857	410.75240	130.10684	129.77191	130.78161
16.7604	16.7671	1097	88	479.22778	224.14233	179.35340	166.16341	216.09323	167.13907	215.49925	444.92249	1260.2072	498.54896	392.38767	406.28425	408.78897	390.80986	413.26317	427.66226	399.55732	431.72386	397.69019	422.33752	404.47153	413.16624	130.87737	130.53954	131.55050
16.7671	16.7738	1450	103	482.06567	225.46981	180.41543	167.14741	217.37317	168.12877	216.77559	447.59086	1267.9461	501.50134	394.87860	408.68893	411.21836	393.17060	415.73370	430.25798	401.92440	434.29107	400.04522	424.87032	406.87416	415.65216	131.66870	131.32977	132.34189
16.7738	16.7805	1808	127	485.16512	226.91953	181.57565	168.22242	218.77005	169.20975	218.16870	450.50482	1276.2384	504.72582	397.64342	411.31561	413.87556	395.75575	418.43057	433.07837	404.51067	437.09808	402.61847	427.63688	409.50018	418.36920	132.52654	132.19244	133.20540
16.7805	16.7872	2122	129	488.22179	228.34935	182.71969	169.28228	220.14817	170.27585	219.54298	453.37483	1284.4735	507.90576	400.34216	413.90619	416.49745	398.31006	421.09326	435.86732	407.06072	439.86800	405.15651	430.36678	412.08919	421.04953	133.37426	133.04469	134.05866
16.7872	16.7939	2419	140	491.20008	229.74271	183.83410	170.31439	221.49185	171.31470	220.88270	456.16474	1292.5973	511.00411	402.92297	416.43059	419.05451	400.80732	423.69297	438.59780	409.54449	442.56976	407.63000	433.02936	414.61048	423.66253	134.20325	133.87769	134.89298
16.7939	16.8006	2468	126	493.82710	230.97159	184.81739	171.22537	222.67657	172.23099	222.06409	458.63227	1299.8047	513.73717	405.22419	418.65687	421.31123	403.00678	425.98886	441.01280	411.73616	444.95518	409.81201	435.37954	416.83530	425.97520	134.93891	134.61094	135.62890
16.8006	16.8073	2094	124	496.10648	232.03766	185.67089	172.01647	223.70395	173.02598	223.08878	460.78076	1306.1053	516.10872	407.24880	420.58811	423.27072	404.91147	427.98406	443.11559	413.63873	447.02751	411.70552	437.42055	418.76669	427.99069	135.58222	135.24547	136.26744
16.8073	16.8140	1783	114	498.00998	232.92779	186.38326	172.67643	224.56230	173.69005	223.94467	462.58082	1311.2976	518.08896	408.93128	422.20076	424.91001	406.52127	429.65560	444.87992	415.22703	448.76131	413.28717	439.13486	420.38119	429.68340	136.11607	135.78567	136.80382
16.8140	16.8207	1360	114	499.69924	233.71763	187.01519	173.26164	225.32431	174.27950	224.70436	464.18229	1315.8582	519.84617	410.41875	423.63183	426.36678	407.96303	431.14266	446.45136	416.63620	450.30216	414.69106	440.66298	421.81506	431.19216	136.58751	136.27211	137.28198
16.8207	16.8274	966	107	501.05955	234.35410	187.52441	173.73349	225.93778	174.75359	225.31595	465.47494	1319.6826	521.26159	411.63742	424.78421	427.54206	409.13906	432.34528	447.72998	417.77206	451.54476	415.82226	441.89734	422.97168	432.40833	136.97472	136.66049	137.67126
16.8274	16.8341	712	91	502.32069	234.94433	187.99664	174.17115	226.50646	175.19289	225.88288	466.67447	1323.2846	522.57396	412.77498	425.85257	428.63247	410.23492	433.46211	448.92027	418.82551	452.69743	416.87125	443.04313	424.04471	433.53630	137.33650	137.01932	138.03373
16.8341	16.8408	461	84	503.06300	235.29151	188.27459	174.42855	226.84099	175.45247	226.21676	467.38892	1325.3948	523.34672	413.48400	426.48120	429.27854	410.90322	434.12722	449.64474	419.44652	453.38013	417.48921	443.73246	424.68054	434.22866	137.55716	137.23276	138.24897
16.8408	16.8475	399	94	503.72719	235.60215	188.52327	174.65882	227.14030	175.68488	226.51553	468.03111	1327.2896	524.03820	414.12779	427.04359	429.85766	411.50661	434.72458	450.29967	420.00234	453.99211	418.04230	444.35322	425.25044	434.85443	137.75618	137.42486	138.44257
16.8475	16.8542	300	89	503.81656	235.64462	188.55648	174.68971	227.18107	175.71551	226.55560	468.15529	1327.7604	524.13090	414.27966	427.11808	429.94361	411.62335	434.82820	450.45316	420.07702	454.08439	418.11838	444.47238	425.33326	434.97294	137.78927	137.46958	138.48639
16.8542	16.8609	225	80	503.71138	235.59598	188.51697	174.65324	227.13398	175.67851	226.50821	468.09858	1327.7232	524.02144	414.27472	427.02766	429.86381	411.58236	434.76309	450.43159	419.98985	454.00171	418.03298	444.41916	425.25206	434.92447	137.77111	137.45984	138.47537
16.8609	16.8676	206	75	502.67936	235.11325	188.13105	174.29587	226.66835	175.31933	226.04416	467.17996	1325.2655	522.94883	413.52252	426.15168	428.99431	410.78980	433.89414	449.57579	419.13164	453.08547	417.17823	443.54461	424.38944	434.08045	137.50873	137.19053	138.20299
16.8676	16.8743	185	78	501.31323	234.47418	187.61983	173.82231	226.05218	174.84317	225.42982	465.95116	1321.8835	521.52821	412.48759	424.99200	427.83962	409.72468	432.73553	448.42003	417.99386	451.86716	416.04613	442.37368	423.24429	432.94675	137.15166	136.83186	137.84043
16.8743	16.8810	136	98	499.19358	233.48253	186.82602	173.08669	225.09650	174.10315	224.47653	464.02287	1316.4174	519.32273	410.81510	423.19249	426.04173	408.04489	430.92368	446.58783	416.22556	449.96759	414.28849	440.53431	421.46195	431.15975	136.58107	136.27165	137.27451
16.8810	16.8877	137	78	496.68758	232.31069	185.88817	172.21769	223.96672	173.22904	223.34970	461.75144	1309.9867	516.71618	408.82836	421.06616	423.91393	406.04321	428.77433	444.40906	414.13597	447.72084	412.21037	438.35819	419.35394	429.03930	135.90871	135.60372	136.60112
16.8877	16.8944	149	94	493.69251	230.91075	184.76798	171.17984	222.61654	172.18520	222.00319	459.04558	1302.3347	513.60188	406.44383	418.52607	421.36850	403.63409	426.19774	441.79161	411.63964	445.03460	409.72654	435.75576	416.83367	426.49674	135.10750	134.79943	135.79171
16.8944	16.9011	132	80	490.24931	229.30052	183.47956	169.98615	221.06392	170.98449	220.45493	455.93282	1293.4321	510.02012	403.67807	415.60562	418.44054	400.86200	423.23372	438.77356	408.76887	441.94338	406.87028	432.75152	413.93457	423.56789	134.17998	133.87458	134.85899
16.9011	16.9078	121	87	486.47992	227.53722	182.06869	168.67902	219.36393	169.66959	218.75981	452.52387	1283.6185	506.09809	400.63468	412.40831	415.23412	397.82567	419.98768	435.46386	405.62553	438.55738	403.74294	429.45474	410.75970	420.35783	133.16049	132.86199	133.83651
16.9078	16.9145	117	81	482.05698	225.46872	180.41329	167.14534	217.36985	168.12691	216.77093	448.52474	1272.1332	501.50406	397.06355	408.65703	411.46877	394.26088	416.17559	431.56532	401.93784	434.58182	400.07320	425.58520	407.03205	416.58378	131.96162	131.66875	132.63296
16.9145	16.9212	94	102	477.36819	223.27608	178.65843	165.51949	215.25613	166.49157	214.66256	444.28556	1259.9679	496.63668	393.27775	404.68042	407.47605	390.48112	412.13325	427.42724	398.02873	430.36645	396.18283	421.48268	403.07953	412.58031	130.68979	130.40203	131.35575
16.9212	16.9279	104	79	472.23686	220.88473	176.73801	163.74055	212.94225	164.70235	212.35520	439.62620	1246.6505	491.41463	389.11308	400.32994	403.10696	386.32274	407.71784	422.87914	393.74996	425.75249	391.92510	416.98896	398.75434	408.18423	129.30107	129.01174	129.95786
16.9279	16.9346	114	101	467.02108	218.45541	174.78600	161.93238	210.59017	162.88377	210.00987	434.88679	1233.1132	486.12419	384.87624	395.90811	398.66603	382.09224	403.23118	418.25291	389.40065	421.06247	387.59726	412.42061	394.35803	403.71331	127.89002	127.59790	128.53694
16.9346	16.9413	114	78	461.56158	215.94067	172.74298	160.03943	208.12858	160.97931	207.55492	429.90877	1218.8017	480.64510	380.42559	391.28318	394.01702	377.66488	398.52813	413.41607	384.84866	416.15157	383.06759	407.63148	389.75552	399.04236	126.40284	126.11967	127.04747
16.9413	16.9480	111	96	456.16308	213.45910	170.72278	158.16766	205.69447	159.09701	205.12740	424.98663	1204.6604	475.23621	376.02784	386.71063	389.41969	373.28798	393.87827	408.63326	380.34753	411.29560	378.58852	402.89666	385.20440	394.42344	124.93315	124.65823	125.57497
16.9480	16.9547	121	82	451.27975	211.25015	168.89527	156.47491	203.49241	157.40144	202.93158	420.53890	1191.9720	470.40548	372.07753	382.57951	385.25915	369.33655	389.67837	404.30583	376.27593	406.90382	374.53684	398.62120	381.08746	390.24263	123.61217	123.33826	124.24591
16.9547	16.9614	145	78	446.45730	209.08053	167.09050	154.80307	201.31776	155.73509	200.76402	416.14328	1179.4332	465.61954	368.16898	378.49983	381.15123	365.43307	385.53067	400.03119	372.25498	402.56674	370.53559	394.39736	377.02193	386.11460	122.30662	122.03599	122.93236
16.9614	16.9681	164	90	441.81117	207.02645	165.35159	153.19178	199.22251	154.15446	198.67846	411.89812	1167.3267	460.96117	364.38034	374.56910	377.19586	361.66832	381.53410	395.90927	368.38071	398.38808	366.68041	390.32282	373.10531	382.13951	121.04560	120.78513	121.66361
16.9681	16.9748	150	89	437.34428	205.03703	163.68786	151.64285	197.20829	152.65595	196.68939	407.82081	1155.6793	456.47743	360.74819	370.79050	373.39289	358.04754	377.69138	391.94954	364.65608	394.37112	362.97409	386.40671	369.34013	378.31763	119.83393	119.57845	120.44743
16.9748	16.9815	194	88	433.17378	203.15510	162.14812	150.19703	195.32803	151.29241	194.85927	404.02092	1144.7913	452.28266	357.37441	367.26344	369.84195	354.66488	374.10309	388.25790	361.17891	390.62155	359.51394	382.75251	365.82535	374.74907	118.70384	118.44500	119.31805
16.9815	16.9882	241	86	429.37775	201.45053	160.77774	148.88099	193.61652	150.06246	193.23441	400.56412	1134.9354	448.46135	354.29644	364.05120	366.61007	351.59843	370.84065	384.90233	358.01375	387.20944	356.36429	379.43264	362.62638	371.50665	117.67541	117.41532	118.28550
16.9882	16.9949	250	87	425.93343	199.91251	159.56633	147.68683	192.06347	148.95794	191.80218	397.42954	1126.0487	444.99079	351.49630	361.13462	363.67784	348.82889	367.88423	381.86239	355.14163	384.11426	353.50624	376.42674	359.72399	368.57052	116.74244	116.48310	117.34390
16.9949	17.0016	322	90	422.62868	198.43088	158.44325	146.54324	190.57334	147.87218	190.42495	394.43162	1117.4617	441.66264	348.82603	358.33707	360.86555	346.16064	365.04496	378.93944	352.38632	381.14435	350.76410	373.53835	356.93960	365.75112	115.84661	115.59415	116.44975
17.0016	17.0083	368	88	419.39648	196.97846	157.36677	145.42597	189.11590	146.79572	189.07624	391.50489	1109.0293	438.40855	346.22352	355.60139	358.11560	343.54483	362.26653	376.07717	349.69173	378.23954	348.08218	370.71096	354.21653	362.99233	114.97007	114.72778	115.58042
17.0083	17.0150	497	107	416.64328	195.74552	156.40280	144.51324	187.88748	145.88310	187.91958	389.01382	1101.9173	435.64157	343.99626	353.27064	355.77433	341.32289	359.90518	373.65056	347.39588	375.76730	345.79754	368.31082	351.89751	360.65124	114.22881	113.98547	114.82993
17.0150	17.0217	583	94	414.02055	194.57238	155.46943	143.65626	186.72147	145.01511	186.81522	386.64143	1095.1650	433.00728	341.87121	351.05019	353.54438	339.20823	357.65744	371.34264	345.20865	373.41289	343.62112	366.02706	349.68853	358.42393	113.52442	113.27695	114.11178
17.0217	17.0284	790	107	412.25515	193.77701	154.86523	143.14883	186.00012	144.42412	186.09036	385.05538	1090.6742	431.25493	340.46472	349.55520	352.04610	337.80088	356.14778	369.80191	343.73655	371.83139	342.15700	364.50036	348.20397	356.93481	113.05070	112.80720	113.64109
17.0284	17.0351	1062	89	410.59916	193.03223	154.30204	142.68152	185.33368	143.87086	185.41283	383.57048	1086.4668	429.61605	339.14931	348.15293	350.64122	336.48338	354.73250	368.35902	342.35570	370.34848	340.78371	363.06994	346.81185	355.54020	112.60687	112.36754	113.20124
17.0351	17.0418	1319	126	409.52534	192.58577	153.94548	142.37455	184.93910	143.54772	184.97421	382.63413	1083.7059	428.59320	338.31172	347.24591	349.73373	335.63945	353.82183	367.43646	341.46047	369.38953	339.89283	362.14838	345.91172	354.65296	112.32796	112.08351	112.91664
17.0418	17.0485	1727	112	408.55896	192.18468	153.63107	142.09900	184.60512	143.25552	184.58589	381.79727	1081.2416	427.67743	337.56166	346.42958	348.91777	334.88263	353.00410	366.60964	340.65469	368.52752	339.09109	361.32299	345.10205	353.85760	112.07749	111.82951	112.66188
17.0485	17.0552	2175	113	408.05934	191.98067	153.49953	141.95988	184.53381	143.09782	184.41588	381.39253	1080.0650	427.22670	337.19175	346.00723	348.49948	334.50410	352.59012	366.19867	340.23759	368.08662	338.67659	360.91530	344.68543	353.46137	111.95064	111.70597	112.53672
17.0552	17.0619	2699	120	407.56888	191.78541	153.35946	141.82880	184.42834	142.95364	184.24533	380.99621	1078.8953	426.79090	336.83313	345.59279	348.08950	334.13650	352.18317	365.79593	339.82835	367.65386	338.26980	360.51437	344.27712	353.07735	111.82565	111.58451	112.41523
17.0619	17.0686	3112	161	407.09800	191.60867	153.20154	141.71471	184.25112	142.83801	184.07373	380.61785	1077.7407	426.38678	336.49846	345.19524	347.69725	333.79211	351.79129	365.41074	339.43591	367.23848	337.87945	360.12792	343.88650	352.71925	111.70466	111.46746	112.30150
17.0686	17.0753	3327	132	406.79743	191.50840	153.11871	141.65490	184.16539	142.76823	183.98220	380.39428	1077.0546	426.15926	336.29944	344.94195	347.45019	333.58163	351.54895	365.18354	339.18527	366.97736	337.63043	359.89261	343.63932	352.50545	111.63244	111.39629	112.23084
17.0753	17.0820	3318	146	406.69933	191.49905	153.12520	141.65964	184.18849	142.75297	183.98592	380.35479	1076.9256	426.14179	336.26170	344.86017	347.37573	333.53038	351.48442	365.14421	339.10323	366.89966	337.54944	359.83698	343.56269	352.46324	111.61822	111.37967	112.21140
17.0820	17.0887	3140	154	406.59295	191.48332	153.12525	141.65202	184.19741	142.74083	183.97508	380.31082	1076.7903	426.11259	336.22428	344.77139	347.29457	333.47258	351.41059	365.08912	339.01450	366.81499	337.46152	359.77952	343.47930	352.41667	111.60211	111.36294	112.19592
17.0887	17.0954	3074	149	406.48079	191.46316	153.12084	141.63584	184.19652	142.73084	183.95418	380.26374	1076.6505	426.07527	336.18706	344.67774	347.20874	333.41023	351.33032	365.02309	338.92111	366.72548	337.36877	359.72075	343.39119	352.36706	111.58468	111.34611	112.18317
17.0954	17.1021	3004	156	406.29154	191.41129	153.07855	141.61008	184.15965	142.69274	183.91595	380.14607	1076.2528	425.94916	336.07935	344.51681	347.05991	333.29311	351.18921	364.89288	338.76183	366.56796	337.21083	359.58733	343.23672	352.24423	111.54755	111.30522	112.14131
17.1021	17.1088	2967	130	406.07322	191.34745	153.02194	141.58069	184.10917	142.64402	183.87117	380.00173	1075.7577	425.78949	335.94501	344.33049	346.88730	333.15534	351.02515	364.73845	338.57770	366.38479	337.02831	359.42572	343.05721	352.09374	111.50297	111.25522	112.08846
17.1088	17.1155	3075	151	405.86742	191.25889	152.96260	141.51551	184.02725	142.58443	183.78225	379.81711	1075.2094	425.59925	335.78905	344.11425	346.68178	332.98008	350.82457	364.54743	338.36378	366.16744	336.81585	359.22892	342.84667	351.92017	111.43914	111.19566	112.03659
17.1155	17.1222	2761	136	405.66356	191.16623	152.90280	141.44444	183.94014	142.52303	183.68607	379.62580	1074.6520	425.40390	335.62946	343.89298	346.47075	332.79859	350.61790	364.35032	338.14486	365.94437	336.59839	359.02626	342.63092	351.74273	111.37212	111.13450	111.98485
17.1222	17.1289	2451	115	405.29559	190.97071	152.74278	141.30485	183.76674	142.37458	183.50947	379.22692	1073.4710	424.96063	335.27112	343.48603	346.07015	332.43682	350.22409	363.95999	337.74293	365.52147	336.20065	358.63522	342.23280	351.37098	111.25242	111.01678	111.86146
17.1289	17.1356	1930	120	404.96218	190.78657	152.59163	141.17323	183.60269	142.23408	183.34173	378.84872	1072.3509	424.54241	334.93134	343.09687	345.68745	332.09287	349.84816	363.58720	337.35800	365.11685	335.82012	358.26155	341.85214	351.01806	111.13863	110.90460	111.74428
17.1356	17.1423	1430	101	404.87114	190.68439	152.50513	141.09889	183.50606	142.15153	183.23780	378.62036	1071.6737	424.30555	334.72652	342.83700	345.43504	331.87808	349.60233	363.34228	337.09686	364.84557	335.56478	358.01449	341.59849	350.80194	111.06744	110.83274	111.67247
17.1423	17.1490	994	100	404.77241	190.57573	152.41895	141.02210	183.40505	142.06824	183.13252	378.38888	1070.9971	424.06068	334.51733	342.57690	345.18274	331.66256	349.35752	363.10148	336.83345	364.57068	335.30964	357.77046	341.34492	350.58378	110.99582	110.75964	111.60117
17.1490	17.1557	724	83	404.65190	190.44869	152.33354	140.93829	183.29156	141.98277	183.02330	378.14829	1070.3214	423.79294	334.29556	342.31579	344.93039	331.44472	349.11522	362.87190	336.56330	364.28526	335.05466	357.53460	341.09121	350.35962	110.92288	110.68297	111.53116
17.1557	17.1624	483	84	404.39095	190.26652	152.19161	140.80616	183.12712	141.85032	182.85504	377.78227	1069.2673	423.39013	333.96386	341.94088	344.56271	331.11477	348.75496	362.51633	336.18088	363.87353	334.68782	357.17740	340.72407	350.02018	110.81399	110.57256	111.42351
17.1624	17.1691	415	93	403.91644	190.00044	151.96374	140.60052	182.88516	141.64639	182.59695	377.22542	1067.6375	422.78179	333.46489	341.39278	344.01954	330.61425	348.21522	361.96907	335.62761	363.26959	334.15074	356.63561	340.18431	349.50536	110.65039	110.41077	111.25859
17.1691	17.1758	259	100	403.45052	189.74244	151.76120	140.41519	182.63894	141.45404	182.34748	376.70114	1066.1203	422.20618	332.99911	340.87297	343.50569	330.14414	347.70755	361.45391	335.10033	362.69942	333.64185	356.12447	339.67275	349.01999	110.49191	110.25482	111.10386
17.1758	17.1825	242	93	402.99267	189.49185	151.58126	140.24799	182.38922	141.27213	182.10590	376.20620	1064.7041	421.66008	332.56314	340.37871	343.01829	329.70138	347.22874	360.96766	334.59657	362.15969	333.15839	355.64097	339.18662	348.56115	110.33811	110.10419	110.95830
17.1825	17.1892	206	89	402.33630	189.15465	151.31227	139.99737	182.07018	141.02226	181.78950	375.52972	1062.7473	420.90642	331.95620	339.72082	342.36570	329.09879	346.58349	360.31132	333.92629	361.45009	332.51495	354.99141	338.53780	347.93649	110.13563	109.90141	110.75821
17.1892	17.1959	148	92	401.57963	188.77364	150.99828	139.70461	181.71605	140.73804	181.43527	374.76148	1060.5174	420.04786	331.26287	338.98019	341.62958	328.41541	345.85410	359.56901	333.17181	360.65456	331.79059	354.25788	337.80670	347.22801	109.90854	109.67225	110.53057
17.1959	17.2026	153	89	401.17316	188.56363	150.83128	139.55611	181.51234	140.58293	181.22373	374.33472	1059.2889	419.57697	330.88549	338.54692	341.20298	328.02793	345.43535	359.14471	332.72301	360.18857	331.36666	353.84228	337.38158	346.83023	109.78131	109.54282	110.40255
17.2026	17.2093	106	85	400.85412	188.39630	150.70096	139.44363	181.34617	140.46005	181.04781	373.99321	1058.3103	419.20286	330.58699	338.19037	340.85361	327.71430	345.09413	358.79979	332.35047	359.80482	331.01770	353.50602	337.03282	346.51000	109.67900	109.43827	110.29941
17.2093	17.2160	127	82	400.52557	188.22100	150.56720	139.31180	181.18538	140.33293	180.90048	373.65471	1057.3476	418.82289	330.27312	337.83839	340.50978	327.40829	344.77159	358.46747	331.98776	359.42590	330.67391	353.17297	336.68911	346.19773	109.57299	109.34022	110.20289
17.2160	17.2227	134	106	400.19667	188.04577	150.43325	139.17958	181.02547	140.20549	180.75331	373.31585	1056.3810	418.44217	329.95863	337.48623	340.16580	327.10272	344.44932	358.13517	331.62557	359.04709	330.33001	352.83997	336.34534	345.88557	109.46690	109.24198	110.10607
17.2227	17.2294	124	75	399.87065	187.87853	150.29943	139.06002	180.87173	140.07709	180.58002	372.96768	1055.3426	418.05516	329.64919	337.12563	339.81291	326.79451	344.11123	357.78940	331.25949	358.66348	329.97821	352.50305	335.99439	345.56579	109.36285	109.13439	109.99858
17.2294	17.2361	113	101	399.65952	187.76694	150.21067	138.98055	180.76839	139.99166	180.46362	372.73133	1054.6334	417.79648	329.43861	336.86721	339.56306	326.58240	343.87768	357.55228	330.99322	358.38840	329.72622	352.27068	335.74482	345.35047	109.29090	109.06018	109.92628
17.2361	17.2428	110	102	399.89949	187.87388	150.29879	139.05851	180.86297	140.07492	180.57060	372.93401	1055.2165	418.04162	329.61616	337.00990	339.71766	326.74758	344.05458	357.74168	331.11874	358.53933	329.86598	352.44881	335.89327	345.54527	109.34496	109.11702	109.99218
17.2428	17.2495	97	71	400.22824	188.01868	150.41618	139.16547	181.00042	140.18248	180.71228	373.21509	1056.0016	418.36775	329.85870	337.21988	339.94070	326.98098	344.29733	358.00152	331.31125	358.76341	330.07223	352.70256	336.10971	345.81315	109.42352	109.19596	110.07771
17.2495	17.2562	97	90	400.73103	188.23771	150.59096	139.32928	181.22191	140.33760	180.92194	373.64990	1057.1827	418.85260	330.22867	337.56186	340.29798	327.34811	344.66918	358.39945	331.63520	359.13096	330.40888	353.10460	336.45949	346.22432	109.55011	109.31823	110.20173
17.2562	17.2629	83	74	401.25483	188.47418	150.77835	139.50442	181.45079	140.51208	181.15026	374.10889	1058.4478	419.37488	330.62712	337.93010	340.68067	327.74145	345.06416	358.82740	331.98690	359.52573	330.77096	353.53222	336.83515	346.65842	109.68096	109.44927	110.33600
17.2629	17.2696	78	74	401.80252	188.73036	150.97999	139.69238	181.68809	140.70839	181.39968	374.59532	1059.8080	419.93946	331.05776	338.32804	341.09213	328.16443	345.48533	359.28932	332.36996	359.95129	331.16179	353.98881	337.24008	347.11852	109.81667	109.59023	110.48188
17.2696	17.2763	76	100	402.56593	189.08292	151.26557	139.95330	182.02697	140.96978	181.73705	375.28707	1061.7484	420.72085	331.66091	338.90663	341.68780	328.76070	346.09179	359.94531	332.93130	360.56989	331.73009	354.63391	337.82503	347.76447	110.01190	109.79050	110.68777
17.2763	17.2830	71	81	403.47048	189.49857	151.60606	140.26197	182.43229	141.27379	182.13201	376.11311	1064.0684	421.64410	332.37690	339.60336	342.40395	329.47033	346.81943	360.72826	333.60923	361.31472	332.41445	355.40231	338.52772	348.53200	110.24607	110.02955	110.93292
17.2830	17.2897	59	77	404.38409	189.91957	151.93832	140.57223	182.84080	141.59088	182.53650	376.93850	1066.3659	422.58498	333.10148	340.30241	343.12202	330.18301	347.54914	361.51413	334.28927	362.06218	333.10150	356.17873	339.23323	349.30978	110.48658	110.26569	111.17654
17.2897	17.2964	68	91	405.30105	190.34253	152.26777	140.88312	183.25051	141.91262	182.94440	377.76383	1068.6560	423.53222	333.82923	341.00242	343.84090	330.89691	348.27971	362.30119	334.97019	362.81071	333.78963	356.95811	339.93986	350.09132	110.72937	110.50084	111.41968
17.2964	17.3031	71	84	406.20700	190.75904	152.60481	141.19496	183.65180	142.22067	183.34766	378.58085	1070.9671	424.45049	334.54864	341.69615	344.55256	331.61468	349.00417	363.07418	335.64273	363.55287	334.47148	357.72596	340.63589	350.85723	110.96280	110.74237	111.66036
17.3031	17.3098	74	85	407.10851	191.17327	152.94187	141.50590	184.05064	142.52579	183.74894	379.39403	1073.2738	425.36169	335.26458	342.38667	345.26084	332.33057	349.72536	363.84273	336.31182	364.29163	335.15015	358.48968	341.32808	351.61860	111.19421	110.98398	111.90000
17.3098	17.3165	78	78	407.74753	191.46319	153.17923	141.71933	184.33558	142.74451	184.02860	379.96374	1074.8966	426.00873	335.77244	342.86277	345.75214	332.81886	350.22430	364.39141	336.77217	364.80028	335.61705	359.02570	341.80473	352.17244	111.36434	111.14884	112.07735
17.3165	17.3232	77	100	408.40306	191.76224	153.42389	141.94082	184.62843	142.97038	184.31819	380.55127	1076.5622	426.67511	336.29391	343.35449	346.25901	333.32393	350.73926	364.95524	337.24747	365.32543	336.10036	359.57915	342.29698	352.74040	111.53812	111.31857	112.25808
17.3232	17.3299	75	97	409.15487	192.11485	153.71132	142.20970	184.96748	143.23818	184.66611	381.24323	1078.4770	427.45469	336.89481	343.93787	346.85705	333.92747	351.34807	365.60763	337.81046	365.94733	336.68003	360.23479	342.88073	353.39063	111.73308	111.51689	112.45822
17.3299	17.3366	80	91	409.88172	192.45183	153.98489	142.46455	185.29154	143.49242	184.99712	381.90490	1080.3193	428.19805	337.47137	344.49418	347.42736	334.50450	351.92893	366.23287	338.34685	366.54032	337.23650	360.85865	343.43735	354.01691	111.92020	111.70748	112.65310
17.3366	17.3433	79	83	410.54383	192.74818	154.22244	142.68291	185.57661	143.71139	185.28416	382.48782	1081.9731	428.84721	337.98470	344.98005	347.92557	335.01259	352.43712	366.78755	338.81403	367.05813	337.73265	361.39987	343.92340	354.58102	112.08695	111.87800	112.83433
17.3433	17.3500	65	86	411.00736	192.95554	154.38903	142.83961	185.77839	143.86632	185.48573	382.89592	1083.1106	429.30499	338.34517	345.30902	348.26606	335.36492	352.78520	367.17487	339.12696	367.40920	338.07619	361.78071	344.25376	354.98026	112.20438	111.99707	112.95943
17.3500	17.3567	80	79	411.18751	193.03591	154.45437	142.90836	185.86133	143.92988	185.56536	383.05456	1083.5111	429.48970	338.48751	345.41402	348.38144	335.49498	352.90477	367.32336	339.21971	367.52225	338.20195	361.93269	344.36190	355.14425	112.25145	112.04272	113.00443
17.3567	17.3634	80	100	411.18539	193.02781	154.45049	142.90767	185.85977	143.92378	185.56153	383.03351	1083.4399	429.47385	338.46750	345.35662	348.33303	335.47233	352.85832	367.29642	339.15397	367.46226	338.16973	361.91718	344.30777	355.14505	112.24319	112.03646	113.00118
17.3634	17.3701	80	105	411.03181	192.94619	154.38908	142.84928	185.78800	143.85979	185.48836	382.86314	1082.9765	429.29134	338.31256	345.16425	348.14850	335.32279	352.67389	367.12369	338.95651	367.25843	338.00621	361.76250	344.11877	355.01024	112.18893	111.98706	112.95783
17.3701	17.3768	106	97	411.02962	192.93322	154.38435	142.84620	185.78886	143.85337	185.47988	382.84297	1082.9284	429.26845	338.29452	345.10804	348.10064	335.30244	352.62907	367.10219	338.89285	367.20017	337.97434	361.74170	344.06581	355.01611	112.18318	111.97744	112.95714
17.3768	17.3835	104	86	411.09865	192.95256	154.40629	142.86916	185.82388	143.87404	185.50184	382.89348	1083.0757	429.32069	338.34090	345.11594	348.11712	335.34287	352.64996	367.15185	338.89218	367.21044	338.00442	361.78390	344.07690	355.08816	112.20025	111.98653	112.97651
17.3835	17.3902	92	77	411.24837	193.01976	154.45545	142.91485	185.89181	143.92086	185.56726	383.01709	1083.3956	429.46951	338.44186	345.18787	348.19939	335.44120	352.73610	367.26750	338.95430	367.28811	338.09649	361.90148	344.15421	355.23123	112.23256	112.02112	113.01595
17.3902	17.3969	97	105	411.41659	193.09791	154.51085	142.96575	185.96728	143.97367	185.64264	383.15745	1083.7550	429.64045	338.55533	345.27445	348.29670	335.55280	352.83716	367.39826	339.03077	367.38119	338.20274	362.03631	344.24666	355.39057	112.26836	112.06154	113.05999
17.3969	17.4036	106	90	411.50856	193.12686	154.54486	142.99791	185.99632	143.99894	185.67395	383.22553	1083.9577	429.70956	338.62130	345.29761	348.33065	335.61183	352.87436	367.45767	339.04396	367.40978	338.23984	362.09656	344.27270	355.48025	112.28556	112.07861	113.09120
17.4036	17.4103	102	82	411.59529	193.15396	154.57600	143.02769	186.02371	144.02270	185.70326	383.28912	1084.1442	429.77342	338.68290	345.31635	348.36026	335.66699	352.90725	367.51257	339.05301	367.43374	338.27215	362.15236	344.29447	355.56710	112.30170	112.09389	113.12036
17.4103	17.4170	96	84	411.66927	193.18993	154.58806	143.04212	186.06043	144.04609	185.73654	383.34602	1084.2440	429.83976	338.72423	345.32398	348.37952	335.71056	352.93040	367.55983	339.05378	367.44495	338.29271	362.20333	344.30856	355.66396	112.31717	112.10311	113.13435
17.4170	17.4237	109	88	411.74040	193.22164	154.60414	143.05908	186.09253	144.06819	185.76697	383.39933	1084.3553	429.90226	338.76573	345.33075	348.39729	335.75063	352.95212	367.60612	339.05345	367.45531	338.31264	362.25497	344.32146	355.75563	112.33084	112.11338	113.15106
17.4237	17.4304	103	78	411.80143	193.23809	154.63472	143.08513	186.10809	144.08564	185.78713	383.43979	1084.5078	429.95098	338.80790	345.33440	348.40975	335.77816	352.96865	367.64898	339.04916	367.46262	338.33031	362.30912	344.33010	355.82872	112.33801	112.12745	113.17762
17.4304	17.4371	92	86	411.86333	193.26082	154.65820	143.10582	186.12885	144.10412	185.81042	383.48210	1084.6557	430.00201	338.84692	345.33804	348.41916	335.80929	352.98565	367.69223	339.04499	367.46971	338.34707	362.35973	344.33894	355.90262	112.34936	112.13942	113.20023
17.4371	17.4438	94	88	411.92690	193.29510	154.66862	143.11663	186.15921	144.12449	185.83948	383.52788	1084.7953	430.05733	338.88021	345.34169	348.42296	335.84712	353.00351	367.73625	339.04106	367.47639	338.36219	362.40385	344.34817	355.97806	112.36840	112.14755	113.21556
17.4438	17.4505	102	84	411.98508	193.31613	154.68584	143.13203	186.18219	144.13887	185.86046	383.56603	1084.8879	430.10186	338.91432	345.33740	348.41135	335.86993	353.01266	367.76938	339.02961	367.47418	338.36944	362.43717	344.35009	356.05276	112.37787	112.15619	113.23256
17.4505	17.4572	90	88	412.03748	193.32311	154.71023	143.15229	186.19734	144.14687	185.87284	383.59607	1084.9308	430.13494	338.94926	345.32473	348.38345	335.87683	353.01258	367.79094	339.01022	367.46258	338.36837	362.45902	344.34426	356.12658	112.37721	112.16537	113.25132
17.4572	17.4639	84	90	412.07943	193.33357	154.71970	143.16094	186.20487	144.15690	185.88551	383.61915	1084.9878	430.16105	338.96848	345.30684	348.34739	335.88326	353.00823	367.80614	338.98505	367.44516	338.36178	362.48490	344.33256	356.19013	112.38239	112.17188	113.26690
17.4639	17.4706	104	86	412.11500	193.34617	154.72004	143.16249	186.20775	144.16818	185.89836	383.63798	1085.0534	430.18291	338.97809	345.28574	348.30630	335.88941	353.00125	367.81745	338.95631	367.42418	338.35181	362.51326	344.31724	356.24742	112.39114	112.17675	113.28052
17.4706	17.4773	113	70	412.15168	193.35503	154.72898	143.17238	186.22413	144.17340	185.90839	383.64750	1085.0669	430.20260	338.99118	345.26110	348.27079	335.89790	352.98884	367.82638	338.92549	367.39940	338.33708	362.52911	344.29926	356.31737	112.39440	112.17772	113.28849
17.4773	17.4840	97	89	412.18874	193.36269	154.74072	143.18498	186.24491	144.17665	185.91750	383.65401	1085.0634	430.22159	339.00540	345.23530	348.23707	335.90715	352.97465	367.83453	338.89398	367.37338	338.32079	362.54090	344.28040	356.39146	112.39586	112.17742	113.29462
17.4840	17.4907	100	82	412.20751	193.36698	154.74365	143.18604	186.23821	144.18270	185.91470	383.66295	1085.0907	430.23167	339.00646	345.20259	348.19720	335.90690	352.95530	367.83148	338.85389	367.33772	338.29681	362.55152	344.25408	356.44548	112.39498	112.17738	113.30816
17.4907	17.4974	106	78	412.22318	193.37051	154.74519	143.18540	186.22837	144.18863	185.91045	383.67135	1085.1198	430.23972	339.00532	345.16838	348.15607	335.90476	352.93464	367.82637	338.81216	367.30016	338.27123	362.56128	344.22626	356.49696	112.39369	112.17713	113.32225
17.4974	17.5041	96	97	412.20490	193.35991	154.73428	143.17348	186.23123	144.17520	185.90766	383.64485	1085.0690	430.20952	338.98095	345.10705	348.09356	335.87262	352.88537	367.79372	338.74635	367.23291	338.21898	362.54171	344.17407	356.54759	112.38748	112.16696	113.32021
17.5041	17.5108	103	97	412.18791	193.34964	154.72445	143.16332	186.23033	144.16352	185.90280	383.62036	1085.0107	430.18090	338.95857	345.04693	348.03192	335.84189	352.83746	367.76178	338.68189	367.16700	338.16785	362.52265	344.12283	356.60024	112.38053	112.15786	113.31990
17.5108	17.5175	107	93	412.17775	193.34114	154.72036	143.16255	186.20939	144.16116	185.88687	383.60658	1084.9130	430.16061	338.94673	344.99312	347.97471	335.81865	352.79666	367.73363	338.62450	367.10806	338.12246	362.50631	344.07649	356.66378	112.36960	112.15453	113.32882
17.5175	17.5242	115	85	412.17000	193.33273	154.71619	143.16000	186.19697	144.15723	185.87769	383.59268	1084.8412	430.14065	338.93379	344.94077	347.91968	335.79909	352.75716	367.70726	338.56742	367.05239	338.07852	362.49547	344.03190	356.73648	112.36233	112.15034	113.33678
17.5242	17.5309	123	83	412.16808	193.32454	154.71182	143.15314	186.20520	144.14950	185.88490	383.57852	1084.8321	430.12154	338.91820	344.89206	347.87002	335.78852	352.72085	367.68530	338.51124	367.00476	338.03816	362.49799	343.99163	356.83121	112.36395	112.14405	113.34241
17.5309	17.5376	111	89	412.16080	193.31677	154.70837	143.14857	186.20324	144.14249	185.88295	383.56279	1084.8024	430.10473	338.90534	344.84181	347.81853	335.77036	352.68294	367.66309	338.45427	366.95597	337.99631	362.49262	343.95032	356.93924	112.35978	112.13722	113.35025
17.5376	17.5443	99	79	412.14632	193.30954	154.70614	143.14708	186.18755	144.13644	185.86863	383.54494	1084.7446	430.09100	338.89616	344.78946	347.76456	335.74196	352.64285	367.64055	338.39621	366.90559	337.95243	362.47661	343.90759	357.06525	112.34783	112.12965	113.36106
17.5443	17.5510	87	90	412.10833	193.28887	154.69310	143.13298	186.16875	144.12380	185.84877	383.50372	1084.6229	430.05070	338.86099	344.71805	347.69303	335.70557	352.58358	367.59834	338.31960	366.83659	337.89000	362.44228	343.84587	357.17586	112.33194	112.11780	113.35705
17.5510	17.5577	100	75	412.05191	193.25766	154.67157	143.10900	186.14749	144.10598	185.82454	383.44416	1084.4511	429.98956	338.80543	344.63164	347.60769	335.66291	352.50924	367.54070	338.22839	366.75296	337.81301	362.39358	343.76921	357.27447	112.31297	112.10259	113.34143
17.5577	17.5644	105	86	412.00380	193.23422	154.64783	143.09143	186.12438	144.08412	185.80188	383.39032	1084.3134	429.93140	338.75953	344.54736	347.52367	335.61174	352.43675	367.48498	338.13841	366.67105	337.73753	362.35640	343.69317	357.34348	112.30117	112.08451	113.35019
17.5644	17.5711	99	73	411.95935	193.21421	154.62311	143.07669	186.10046	144.06049	185.77991	383.33900	1084.1907	429.87455	338.71788	344.46404	347.44026	335.55684	352.36509	367.43014	338.04900	366.58993	337.66275	362.32431	343.61742	357.39946	112.29252	112.06518	113.36966
17.5711	17.5778	107	77	411.90879	193.18842	154.60799	143.05882	186.07463	144.04696	185.75629	383.28906	1084.0126	429.82429	338.67467	344.38237	347.35850	335.51080	352.29564	367.37422	337.96073	366.51028	337.58857	362.28187	343.54775	357.42007	112.27540	112.05444	113.35915
17.5778	17.5845	96	76	411.85699	193.16146	154.59486	143.04032	186.04842	144.03552	185.73234	383.23943	1083.8232	429.77542	338.63117	344.30110	347.27714	335.46662	352.22669	367.31812	337.87276	366.43097	337.51457	362.23732	343.47938	357.43338	112.25654	112.04549	113.34247
17.5845	17.5912	134	80	411.81997	193.13555	154.57156	143.02137	186.02986	144.01083	185.71151	383.18938	1083.7015	429.71794	338.58150	344.22041	347.19781	335.41363	352.15669	367.26561	337.78712	366.35259	337.44148	362.20235	343.41035	357.42076	112.24087	112.02857	113.35799
17.5912	17.5979	141	90	411.77925	193.10923	154.54795	143.00175	186.00995	143.98645	185.68975	383.13665	1083.5740	429.65855	338.53089	344.13767	347.11657	335.35941	352.08482	367.21156	337.69949	366.27213	337.36631	362.16602	343.33963	357.40254	112.22459	112.01079	113.37245
17.5979	17.6046	176	73	411.69967	193.07886	154.52522	142.97616	185.97511	143.96967	185.65852	383.05960	1083.3706	429.58483	338.47410	344.03635	347.01739	335.29733	351.99644	367.14231	337.59322	366.17274	337.27214	362.11402	343.25400	357.34186	112.20168	111.98796	113.36579
17.6046	17.6113	200	82	411.62173	193.04485	154.50044	142.95031	185.93961	143.94822	185.62544	382.98153	1083.1473	429.50692	338.41200	343.93354	346.91660	335.23120	351.90598	367.07019	337.48504	366.07138	337.17635	362.05729	343.16665	357.27446	112.17945	111.96532	113.36297
17.6113	17.6180	257	91	411.54917	192.99880	154.46889	142.92356	185.90189	143.91128	185.58624	382.90003	1082.8582	429.41508	338.33228	343.82576	346.81041	335.15160	351.80857	366.98858	337.37043	365.96343	337.07511	361.98486	343.07358	357.18475	112.15947	111.94333	113.37290
17.6180	17.6247	316	79	411.47012	192.95570	154.43451	142.89303	185.86479	143.87779	185.54567	382.81833	1082.5918	429.32376	338.25740	343.71575	346.70228	335.07446	351.70939	366.90416	337.25513	365.85370	336.97170	361.91633	342.98077	357.09101	112.13739	111.91975	113.37819
17.6247	17.6314	343	102	411.37978	192.91768	154.39521	142.85591	185.82871	143.85021	185.50270	382.73618	1082.3644	429.23321	338.19080	343.60176	346.59066	335.00148	351.60701	366.81479	337.13847	365.74074	336.86440	361.85446	342.88829	356.99018	112.11163	111.89342	113.37546
17.6314	17.6381	380	99	411.29227	192.87720	154.36199	142.82359	185.79000	143.81992	185.46277	382.64985	1082.0950	429.13984	338.11699	343.48827	346.47768	334.92749	351.50513	366.73161	337.02060	365.62767	336.75711	361.78589	342.79821	356.88810	112.08306	111.86734	113.39339
17.6381	17.6448	367	90	411.20760	192.83430	154.33485	142.79607	185.74868	143.78694	185.42590	382.55938	1081.7837	429.04369	338.03601	343.37533	346.36338	334.85253	351.40379	366.65463	336.90157	365.51453	336.64985	361.71067	342.71056	356.78482	112.05168	111.84151	113.43191
17.6448	17.6515	325	107	411.13107	192.79606	154.30396	142.76908	185.71293	143.75891	185.39058	382.47784	1081.5506	428.96002	337.97080	343.27057	346.25988	334.77777	351.30975	366.57872	336.79145	365.41031	336.55028	361.64761	342.62953	356.68949	112.03080	111.81842	113.46375
17.6515	17.6582	327	82	411.05929	192.76055	154.27094	142.74242	185.68041	143.73374	185.35618	382.40150	1081.3627	428.88359	337.91470	343.17063	346.16268	334.70319	351.22001	366.50348	336.68654	365.31132	336.45520	361.59160	342.55238	356.59881	112.01598	111.79693	113.49173
17.6582	17.6649	277	76	411.03880	192.74919	154.26411	142.73559	185.66838	143.72644	185.34974	382.37575	1081.3060	428.86026	337.89053	343.11438	346.10782	334.68299	351.17546	366.47768	336.62409	365.25912	336.40045	361.58535	342.51388	356.55342	112.00863	111.78904	113.50699
17.6649	17.6716	208	92	411.03368	192.74508	154.26512	142.73470	185.66249	143.72450	185.35168	382.36516	1081.2886	428.85284	337.87592	343.07121	346.06564	334.67911	351.14444	366.46669	336.57434	365.22091	336.35777	361.59402	342.48696	356.52160	112.00353	111.78522	113.51844
17.6716	17.6783	173	81	411.04590	192.74717	154.26607	142.73806	185.66243	143.72422	185.35193	382.37685	1081.2464	428.85365	337.88191	343.03676	346.03465	334.68155	351.12357	366.46815	336.53501	365.19379	336.32384	361.61111	342.46344	356.50080	112.00791	111.78777	113.54707
17.6783	17.6850	139	86	411.05952	192.74994	154.26709	142.74180	185.66300	143.72427	185.35232	382.39040	1081.2046	428.85561	337.88973	343.00327	346.00479	334.68446	351.10380	366.47088	336.49672	365.16783	336.29090	361.62890	342.44003	356.48119	112.01318	111.79079	113.57682
17.6850	17.6917	123	84	411.06182	192.75313	154.26997	142.74351	185.66393	143.72796	185.36077	382.39101	1081.2426	428.86481	337.88815	342.97077	345.97383	334.68211	351.08488	366.47216	336.45678	365.14130	336.25965	361.64167	342.41015	356.46199	112.01564	111.78870	113.58827
17.6917	17.6984	112	83	411.06287	192.75469	154.27088	142.74426	185.66398	143.72990	185.36611	382.38754	1081.2568	428.87017	337.88391	342.93498	345.94015	334.67687	351.06263	366.46891	336.41384	365.11145	336.22556	361.65335	342.37679	356.43946	112.01599	111.78625	113.59694
17.6984	17.7051	108	106	411.05789	192.74849	154.26226	142.74038	185.65985	143.72348	185.35656	382.36441	1081.1571	428.85703	337.86687	342.88329	345.89332	334.65767	351.02435	366.44382	336.35629	365.06559	336.17772	361.65977	342.32656	356.40090	112.00623	111.78205	113.59231
17.7051	17.7118	92	83	411.04187	192.73856	154.25291	142.73397	185.65203	143.71546	185.34663	382.34008	1081.0635	428.83550	337.84474	342.82735	345.84163	334.63809	350.98151	366.41911	336.29480	365.01450	336.12583	361.65729	342.27159	356.35770	111.99839	111.77491	113.58450
17.7118	17.7185	90	77	411.00090	192.72019	154.24188	142.72184	185.63583	143.70379	185.33586	382.31304	1080.9839	428.79497	337.81107	342.76182	345.77892	334.61767	350.92839	366.39528	336.22438	364.95159	336.06480	361.63468	342.20593	356.30404	111.99492	111.76112	113.56952
17.7185	17.7252	78	74	410.96532	192.70478	154.22864	142.71008	185.62087	143.69210	185.32231	382.28302	1080.9051	428.75919	337.77274	342.69391	345.71372	334.58349	350.87350	366.36340	336.15114	364.88781	336.00381	361.61706	342.13823	356.24860	111.98769	111.74873	113.55301
17.7252	17.7319	75	79	410.93661	192.69316	154.21260	142.69881	185.60749	143.68039	185.30526	382.24924	1080.8274	428.72946	337.72853	342.62310	345.64543	334.53191	350.81644	366.32136	336.07442	364.82301	335.94295	361.60577	342.06804	356.19096	111.97570	111.73813	113.53459
17.7319	17.7386	75	95	410.90123	192.67174	154.19873	142.68674	185.59019	143.66645	185.28670	382.21039	1080.7041	428.68863	337.69206	342.55292	345.57814	334.49867	350.75929	366.27968	335.99925	364.75762	335.88139	361.58741	341.99799	356.13309	111.96536	111.72691	113.51617
17.7386	17.7453	69	84	410.86092	192.64307	154.18645	142.67407	185.56998	143.65085	185.26702	382.16777	1080.5469	428.63957	337.66128	342.48318	345.51154	334.47896	350.70204	366.23825	335.92519	364.69174	335.81928	361.56381	341.92801	356.07502	111.95624	111.71523	113.49775
17.7453	17.7520	92	77	410.82352	192.62753	154.17085	142.65890	185.55523	143.63805	185.25370	382.12488	1080.4459	428.60239	337.62358	342.41309	345.44180	334.44508	350.64548	366.20496	335.84960	364.62661	335.75793	361.53828	341.85789	356.01720	111.94707	111.70416	113.47944
17.7520	17.7587	86	93	410.78732	192.61735	154.15388	142.64269	185.54270	143.62639	185.24298	382.08187	1080.3678	428.57006	337.58304	342.34285	345.37074	334.40539	350.58919	366.17498	335.77336	364.56177	335.69687	361.51195	341.78770	355.95946	111.93787	111.69334	113.46116
17.7587	17.7654	80	71	410.74608	192.59487	154.14074	142.63167	185.51935	143.61055	185.22048	382.04046	1080.2103	428.52113	337.54544	342.26827	345.29958	334.36342	350.52684	366.13114	335.69354	364.49150	335.63146	361.49716	341.71326	355.89693	111.92320	111.68029	113.44116
17.7654	17.7721	93	81	410.70393	192.57012	154.12833	142.62161	185.49401	143.59394	185.19581	381.99936	1080.0382	428.46915	337.50842	342.19295	345.22844	334.32104	350.46342	366.08477	335.61311	364.42027	335.56530	361.48452	341.63808	355.83354	111.90752	111.66683	113.42086
17.7721	17.7788	94	59	410.64480	192.54835	154.10142	142.59422	185.47133	143.57561	185.17417	381.95404	1079.9004	428.40938	337.45280	342.10735	345.14170	334.27094	350.39101	366.02754	335.52195	364.33915	335.48911	361.45444	341.55279	355.75961	111.89960	111.65066	113.39757
17.7788	17.7855	81	81	410.58658	192.52553	154.07547	142.56824	185.44835	143.55706	185.15208	381.90717	1079.7646	428.34974	337.39781	342.02155	345.05458	334.22039	350.31832	365.97088	335.43077	364.25767	335.41274	361.42354	341.46730	355.68549	111.89060	111.63507	113.37419
17.7855	17.7922	113	102	410.53861	192.49404	154.05964	142.55649	185.42256	143.53717	185.12590	381.84893	1079.6382	428.29244	337.35112	341.93602	344.96725	334.16781	350.24493	365.92070	335.34128	364.17510	335.33659	361.38921	341.38208	355.61166	111.87166	111.62451	113.35062
17.7922	17.7989	100	78	410.48726	192.46457	154.04117	142.54124	185.39563	143.51788	185.09976	381.79190	1079.4918	428.23390	337.30314	341.85055	344.87995	334.11577	350.17174	365.86776	335.25135	364.09265	335.26060	361.35780	341.29680	355.53784	111.85447	111.61245	113.32708
17.7989	17.8056	89	80	410.42574	192.44133	154.01473	142.51531	185.36525	143.50050	185.07383	381.73873	1079.2847	428.17168	337.25135	341.76546	344.79293	334.06553	350.09933	365.80655	335.16027	364.01076	335.18525	361.33536	341.21153	355.46420	111.84263	111.59580	113.30367
17.8056	17.8123	89	77	410.36884	192.41584	153.99134	142.49362	185.34046	143.47995	185.04906	381.68473	1079.1078	428.11256	337.20045	341.67968	344.70802	334.01946	350.02595	365.74780	335.06942	363.92856	335.10914	361.30794	341.12585	355.39011	111.82892	111.57892	113.28011
17.8123	17.8190	90	97	410.31944	192.38667	153.97291	142.47881	185.32474	143.45425	185.02615	381.62936	1078.9801	428.05844	337.15097	341.59272	344.62652	333.98017	349.95096	365.69303	334.97891	363.84580	335.03174	361.27242	341.03946	355.31525	111.81217	111.56167	113.25627
17.8190	17.8257	95	92	410.25831	192.35581	153.94908	142.45811	185.29615	143.43182	184.99795	381.56855	1078.8197	427.99451	337.09654	341.50193	344.54171	333.93329	349.87224	365.63533	334.88380	363.75849	334.95043	361.23780	340.94933	355.23630	111.79627	111.54523	113.23112
17.8257	17.8324	68	79	410.18613	192.32336	153.92016	142.43187	185.25546	143.41245	184.96477	381.50259	1078.6285	427.92133	337.03743	341.40750	344.45377	333.87926	349.78997	365.57484	334.78432	363.66685	334.86539	361.20401	340.85563	355.15347	111.78116	111.52953	113.20474
17.8324	17.8391	73	85	410.12207	192.29289	153.89372	142.40429	185.22946	143.38819	184.93645	381.43530	1078.4291	427.85251	336.97500	341.31351	344.36661	333.82065	349.70612	365.50348	334.68566	363.57563	334.78079	361.17295	340.76156	355.07041	111.76518	111.51315	113.17837
17.8391	17.8458	64	88	410.06245	192.26351	153.86863	142.37601	185.21142	143.36129	184.91078	381.36735	1078.2253	427.78610	336.91081	341.21985	344.27994	333.75963	349.62150	365.42632	334.58752	363.48471	334.69650	361.14339	340.66737	354.98730	111.74875	111.49643	113.15203
17.8458	17.8525	64	72	409.99779	192.22861	153.84550	142.35869	185.17412	143.33982	184.87781	381.30208	1078.0661	427.71667	336.85695	341.12546	344.19318	333.71402	349.53833	365.36737	334.48827	363.39492	334.61233	361.10249	340.57342	354.90454	111.73089	111.47956	113.12577
17.8525	17.8592	58	75	409.93179	192.19221	153.82292	142.34440	185.13155	143.31986	184.84286	381.23760	1077.9193	427.64645	336.80596	341.03094	344.10647	333.67268	349.45562	365.31349	334.38878	363.30550	334.52825	361.05849	340.47960	354.82192	111.71264	111.46268	113.09955
17.8592	17.8659	58	73	409.86320	192.16275	153.79230	142.31459	185.10768	143.29392	184.82019	381.17159	1077.6870	427.56689	336.74401	340.93489	344.01620	333.61512	349.36889	365.24531	334.28725	363.21058	334.43971	361.02846	340.38316	354.73612	111.69917	111.44242	113.07227
17.8659	17.8726	37	94	409.79389	192.13308	153.76130	142.28401	185.08433	143.26741	184.79740	381.10466	1077.4494	427.48623	336.68105	340.83862	343.92529	333.55572	349.28141	365.17597	334.18510	363.11479	334.35044	360.99898	340.28601	354.64956	111.68542	111.42190	113.04474
17.8726	17.8793	40	75	409.71651	192.08882	153.73686	142.26475	185.04058	143.24081	184.75291	381.02438	1077.2548	427.40160	336.61805	340.74172	343.82952	333.49000	349.18798	365.10941	334.07619	363.01326	334.25625	360.95739	340.18152	354.55554	111.65919	111.40217	113.01485
17.8793	17.8860	39	77	409.63846	192.04601	153.71034	142.24275	184.99939	143.21350	184.71127	380.94350	1077.0613	427.31455	336.55256	340.64734	343.73324	333.42615	349.09448	365.04197	333.96715	362.91138	334.16163	360.91511	340.07707	354.46157	111.63429	111.38264	112.98496
17.8860	17.8927	44	70	409.55745	192.00948	153.67481	142.20884	184.96927	143.18308	184.68197	380.85997	1076.8725	427.21696	336.47618	340.56393	343.63474	333.37041	349.00067	364.97070	333.85742	362.80791	334.06516	360.86978	339.97272	354.36776	111.61521	111.36403	112.95506
17.8927	17.8994	33	86	409.47800	191.97126	153.64265	142.17874	184.93656	143.15352	184.64962	380.77975	1076.6590	427.12160	336.40522	340.48355	343.53653	333.30946	348.90713	364.89952	333.74807	362.70508	333.96917	360.82919	339.86859	354.27403	111.59764	111.34405	112.92521
17.8994	17.9061	44	84	409.40173	191.92941	153.61760	142.15668	184.89834	143.12573	184.61076	380.70642	1076.3932	427.03085	336.34561	340.40945	343.43881	333.23742	348.81402	364.82843	333.63939	362.60343	333.87404	360.79854	339.76474	354.18031	111.58325	111.32112	112.89543
17.9061	17.9128	36	73	409.32525	191.88804	153.58916	142.13109	184.85993	143.09755	184.57443	380.63124	1076.1674	426.94192	336.28197	340.33582	343.34343	333.17039	348.72242	364.75913	333.53262	362.50316	333.78074	360.76585	339.66260	354.08820	111.56500	111.30043	112.86613
17.9128	17.9195	39	77	409.24853	191.84725	153.55670	142.10130	184.82133	143.06890	184.54112	380.55387	1075.9894	426.85520	336.21355	340.26278	343.25087	333.10934	348.63263	364.69198	333.42815	362.40455	333.68966	360.73073	339.56251	353.99804	111.54216	111.28242	112.83740
17.9195	17.9262	42	73	409.18889	191.81427	153.52963	142.07861	184.79530	143.04187	184.51231	380.48752	1075.7940	426.78241	336.15659	340.19888	343.16778	333.06319	348.55332	364.63811	333.33252	362.31685	333.60865	360.71056	339.47264	353.91872	111.52828	111.26443	112.81214
17.9262	17.9329	57	89	409.14117	191.78674	153.50633	142.06088	184.77802	143.01600	184.48665	380.42888	1075.5867	426.71936	336.10766	340.14139	343.09135	333.02745	348.48138	364.59353	333.24313	362.23683	333.53473	360.70079	339.38997	353.84700	111.52064	111.24648	112.78932
17.9329	17.9396	35	78	409.09225	191.76474	153.48814	142.04602	184.75541	143.00021	184.45966	380.38466	1075.4513	426.66956	336.07025	340.08338	343.02253	332.99360	348.41728	364.55402	333.16209	362.16486	333.46731	360.70488	339.31408	353.78224	111.50755	111.23897	112.76884
17.9396	17.9463	30	93	409.04284	191.74483	153.47190	142.03226	184.73074	142.98827	184.43215	380.34592	1075.3433	426.62476	336.03721	340.02512	342.95656	332.96045	348.35614	364.51642	333.08418	362.09591	333.40233	360.71425	339.24071	353.72008	111.49238	111.23544	112.74924
17.9463	17.9530	41	100	409.03870	191.73337	153.46113	142.02852	184.72806	142.97872	184.42801	380.33098	1075.3403	426.60839	336.01935	339.99728	342.91861	332.95190	348.32239	364.51166	333.03265	362.05528	333.36454	360.73746	339.19522	353.68699	111.49152	111.23517	112.73859
17.9530	17.9597	44	80	409.04199	191.72331	153.45125	142.02644	184.72898	142.96956	184.42770	380.31996	1075.3547	426.59670	336.00399	339.97443	342.88526	332.94740	348.29315	364.51230	332.98545	362.01930	333.33122	360.76295	339.15431	353.65868	111.49303	111.23543	112.72940
17.9597	17.9664	40	62	409.03261	191.72727	153.44771	142.02106	184.72403	142.97258	184.42019	380.31776	1075.2934	426.59343	336.01078	339.94549	342.85127	332.95367	348.26442	364.50930	332.93791	361.98570	333.29735	360.81013	339.11357	353.63032	111.49733	111.23122	112.72073
17.9664	17.9731	49	77	409.02359	191.72891	153.44434	142.01546	184.71879	142.97417	184.41290	380.31533	1075.2412	426.58793	336.01442	339.91597	342.81697	332.95892	348.23544	364.50641	332.88994	361.95149	333.26306	360.85574	339.07227	353.60162	111.50085	111.22772	112.71187
17.9731	17.9798	60	90	409.01760	191.71380	153.44187	142.00857	184.71185	142.96530	184.40742	380.31085	1075.2545	426.56669	335.99524	339.88261	342.78043	332.95659	348.20453	364.50443	332.83882	361.91290	333.22586	360.88965	339.02698	353.57045	111.49880	111.22935	112.70159
17.9798	17.9865	52	72	409.01047	191.70247	153.43707	142.00112	184.70436	142.95790	184.40216	380.30338	1075.2441	426.54791	335.98084	339.84846	342.74372	332.95248	348.17274	364.50070	332.78683	361.87356	333.18781	360.92537	338.98096	353.53875	111.49720	111.23011	112.69136
17.9865	17.9932	48	80	409.00013	191.70182	153.42568	141.99211	184.69534	142.95469	184.39754	380.28752	1075.1665	426.53613	335.97992	339.81208	342.70651	332.94331	348.13845	364.49202	332.73242	361.83210	333.14736	360.96614	338.93294	353.50557	111.49690	111.22846	112.68126
17.9932	17.9999	48	71	408.99127	191.69720	153.41729	141.98604	184.68720	142.95082	184.39125	380.27200	1075.1230	426.52248	335.97232	339.77594	342.66798	332.93697	348.10427	364.48696	332.67834	361.79069	333.10715	361.01563	338.88517	353.47188	111.49549	111.22866	112.67069
